%OpenBCI Raw EEG Data
%Number of channels = 8
%Sample Rate = 250 Hz
%Board = OpenBCI_GUI$BoardCytonSerial
Sample Index, EXG Channel 0, EXG Channel 1, EXG Channel 2, EXG Channel 3, EXG Channel 4, EXG Channel 5, EXG Channel 6, EXG Channel 7, Accel Channel 0, Accel Channel 1, Accel Channel 2, Other, Other, Other, Other, Other, Other, Other, Analog Channel 0, Analog Channel 1, Analog Channel 2, Timestamp, Other, Timestamp (Formatted)
225.0, 19642.400102901473, 17894.44898300755, 0.0, 0.0, 0.0, 0.0, 0.0, 0.0, 0.0, 0.0, 0.0, 192.0, 0.0, 0.0, 0.0, 0.0, 0.0, 0.0, 0.0, 0.0, 0.0, 1.677182203346732E9, 0.0, 2023-02-23 11:56:43.346
226.0, 19645.574050614126, 17897.466468509017, 0.0, 0.0, 0.0, 0.0, 0.0, 0.0, 0.0, 0.0, 0.0, 192.0, 0.0, 0.0, 0.0, 0.0, 0.0, 0.0, 0.0, 0.0, 0.0, 1.677182203346755E9, 0.0, 2023-02-23 11:56:43.346
227.0, 19643.16006221295, 17895.432459763582, 0.0, 0.0, 0.0, 0.0, 0.0, 0.0, 0.0, 0.0, 0.0, 192.0, 0.0, 0.0, 0.0, 0.0, 0.0, 0.0, 0.0, 0.0, 0.0, 1.677182203346762E9, 0.0, 2023-02-23 11:56:43.346
228.0, 19645.149367469476, 17897.958206887033, 0.0, 0.0, 0.0, 0.0, 0.0, 0.0, 0.0, 0.0, 0.0, 192.0, 0.0, 0.0, 0.0, 0.0, 0.0, 0.0, 0.0, 0.0, 0.0, 1.67718220334677E9, 0.0, 2023-02-23 11:56:43.346
229.0, 19650.26791694974, 17902.316797055817, 0.0, 0.0, 0.0, 0.0, 0.0, 0.0, 0.0, 0.0, 0.0, 192.0, 0.0, 0.0, 0.0, 0.0, 0.0, 0.0, 0.0, 0.0, 0.0, 1.677182203346778E9, 0.0, 2023-02-23 11:56:43.346
230.0, 19656.571108886135, 17907.725919214, 0.0, 0.0, 0.0, 0.0, 0.0, 0.0, 0.0, 0.0, 0.0, 192.0, 0.0, 0.0, 0.0, 0.0, 0.0, 0.0, 0.0, 0.0, 0.0, 1.677182203346785E9, 0.0, 2023-02-23 11:56:43.346
0.0, 0.0, 0.0, 0.0, 0.0, 0.0, 0.0, 0.0, 0.0, 0.0, 0.0, 0.0, 192.0, 0.0, 0.0, 0.0, 0.0, 0.0, 0.0, 0.0, 0.0, 0.0, 1.677182203436235E9, 0.0, 2023-02-23 11:56:43.436
1.0, 16726.279762539838, 16715.21564903446, 0.0, 0.0, 0.0, 0.0, 0.0, 0.0, 0.714, 0.6, -0.324, 192.0, 22.0, 80.0, 18.0, 192.0, 245.0, 224.0, 0.0, 0.0, 0.0, 1.677182203444724E9, 0.0, 2023-02-23 11:56:43.444
2.0, 16722.815242149263, 16715.238000778914, 0.0, 0.0, 0.0, 0.0, 0.0, 0.0, 0.714, 0.6, -0.324, 192.0, 0.0, 0.0, 0.0, 0.0, 0.0, 0.0, 0.0, 0.0, 0.0, 1.677182203452197E9, 0.0, 2023-02-23 11:56:43.452
3.0, 16720.26714328136, 16709.806526876277, 0.0, 0.0, 0.0, 0.0, 0.0, 0.0, 0.714, 0.6, -0.324, 192.0, 0.0, 0.0, 0.0, 0.0, 0.0, 0.0, 0.0, 0.0, 0.0, 1.677182203452217E9, 0.0, 2023-02-23 11:56:43.452
4.0, 16725.45274799499, 16707.660759408565, 0.0, 0.0, 0.0, 0.0, 0.0, 0.0, 0.714, 0.6, -0.324, 192.0, 0.0, 0.0, 0.0, 0.0, 0.0, 0.0, 0.0, 0.0, 0.0, 1.677182203458716E9, 0.0, 2023-02-23 11:56:43.458
5.0, 16727.173832318047, 16705.582047174223, 0.0, 0.0, 0.0, 0.0, 0.0, 0.0, 0.714, 0.6, -0.324, 192.0, 0.0, 0.0, 0.0, 0.0, 0.0, 0.0, 0.0, 0.0, 0.0, 1.677182203458737E9, 0.0, 2023-02-23 11:56:43.458
6.0, 16751.090198885227, 16720.35655025918, 0.0, 0.0, 0.0, 0.0, 0.0, 0.0, 0.714, 0.6, -0.324, 192.0, 0.0, 0.0, 0.0, 0.0, 0.0, 0.0, 0.0, 0.0, 0.0, 1.677182203466814E9, 0.0, 2023-02-23 11:56:43.466
7.0, 16756.6557832546, 16733.722893443453, 0.0, 0.0, 0.0, 0.0, 0.0, 0.0, 0.714, 0.6, -0.324, 192.0, 0.0, 0.0, 0.0, 0.0, 0.0, 0.0, 0.0, 0.0, 0.0, 1.677182203466833E9, 0.0, 2023-02-23 11:56:43.466
8.0, 16726.391521262114, 16714.88037286763, 0.0, 0.0, 0.0, 0.0, 0.0, 0.0, 0.6940000000000001, 0.612, -0.354, 192.0, 21.0, 176.0, 19.0, 32.0, 244.0, 240.0, 0.0, 0.0, 0.0, 1.677182203474844E9, 0.0, 2023-02-23 11:56:43.474
9.0, 16710.342968743204, 16704.978550073927, 0.0, 0.0, 0.0, 0.0, 0.0, 0.0, 0.6940000000000001, 0.612, -0.354, 192.0, 0.0, 0.0, 0.0, 0.0, 0.0, 0.0, 0.0, 0.0, 0.0, 1.677182203474858E9, 0.0, 2023-02-23 11:56:43.474
10.0, 16693.713270868455, 16709.15832628707, 0.0, 0.0, 0.0, 0.0, 0.0, 0.0, 0.6940000000000001, 0.612, -0.354, 192.0, 0.0, 0.0, 0.0, 0.0, 0.0, 0.0, 0.0, 0.0, 0.0, 1.677182203481927E9, 0.0, 2023-02-23 11:56:43.481
11.0, 16689.578198144223, 16712.622846677645, 0.0, 0.0, 0.0, 0.0, 0.0, 0.0, 0.6940000000000001, 0.612, -0.354, 192.0, 0.0, 0.0, 0.0, 0.0, 0.0, 0.0, 0.0, 0.0, 0.0, 1.677182203481938E9, 0.0, 2023-02-23 11:56:43.481
12.0, 16695.523762169334, 16711.125279799136, 0.0, 0.0, 0.0, 0.0, 0.0, 0.0, 0.6940000000000001, 0.612, -0.354, 192.0, 0.0, 0.0, 0.0, 0.0, 0.0, 0.0, 0.0, 0.0, 0.0, 1.677182203489304E9, 0.0, 2023-02-23 11:56:43.489
13.0, 16684.146724241582, 16702.698672139486, 0.0, 0.0, 0.0, 0.0, 0.0, 0.0, 0.6940000000000001, 0.612, -0.354, 192.0, 0.0, 0.0, 0.0, 0.0, 0.0, 0.0, 0.0, 0.0, 0.0, 1.677182203489317E9, 0.0, 2023-02-23 11:56:43.489
14.0, 16680.369279428636, 16710.387672232115, 0.0, 0.0, 0.0, 0.0, 0.0, 0.0, 0.6940000000000001, 0.612, -0.354, 192.0, 0.0, 0.0, 0.0, 0.0, 0.0, 0.0, 0.0, 0.0, 0.0, 1.677182203497526E9, 0.0, 2023-02-23 11:56:43.497
15.0, 16686.717174853944, 16715.752090901387, 0.0, 0.0, 0.0, 0.0, 0.0, 0.0, 0.6940000000000001, 0.612, -0.354, 192.0, 0.0, 0.0, 0.0, 0.0, 0.0, 0.0, 0.0, 0.0, 0.0, 1.677182203497559E9, 0.0, 2023-02-23 11:56:43.497
16.0, 16685.10784925316, 16707.101965797185, 0.0, 0.0, 0.0, 0.0, 0.0, 0.0, 0.6940000000000001, 0.612, -0.354, 192.0, 0.0, 0.0, 0.0, 0.0, 0.0, 0.0, 0.0, 0.0, 0.0, 1.677182203504394E9, 0.0, 2023-02-23 11:56:43.504
17.0, 16665.81829378823, 16700.374090716137, 0.0, 0.0, 0.0, 0.0, 0.0, 0.0, 0.6940000000000001, 0.612, -0.354, 192.0, 0.0, 0.0, 0.0, 0.0, 0.0, 0.0, 0.0, 0.0, 0.0, 1.677182203511609E9, 0.0, 2023-02-23 11:56:43.511
18.0, 16653.256613404348, 16697.06603253675, 0.0, 0.0, 0.0, 0.0, 0.0, 0.0, 0.678, 0.618, -0.368, 192.0, 21.0, 48.0, 19.0, 80.0, 244.0, 128.0, 0.0, 0.0, 0.0, 1.677182203511632E9, 0.0, 2023-02-23 11:56:43.511
19.0, 16658.44221811798, 16703.83861110671, 0.0, 0.0, 0.0, 0.0, 0.0, 0.0, 0.678, 0.618, -0.368, 192.0, 0.0, 0.0, 0.0, 0.0, 0.0, 0.0, 0.0, 0.0, 0.0, 1.677182203519125E9, 0.0, 2023-02-23 11:56:43.519
20.0, 16646.215813900926, 16704.196239017994, 0.0, 0.0, 0.0, 0.0, 0.0, 0.0, 0.678, 0.618, -0.368, 192.0, 0.0, 0.0, 0.0, 0.0, 0.0, 0.0, 0.0, 0.0, 0.0, 1.677182203519146E9, 0.0, 2023-02-23 11:56:43.519
21.0, 16638.973848697406, 16701.290512238804, 0.0, 0.0, 0.0, 0.0, 0.0, 0.0, 0.678, 0.618, -0.368, 192.0, 0.0, 0.0, 0.0, 0.0, 0.0, 0.0, 0.0, 0.0, 0.0, 1.677182203527028E9, 0.0, 2023-02-23 11:56:43.527
22.0, 16639.823214986707, 16708.443070464502, 0.0, 0.0, 0.0, 0.0, 0.0, 0.0, 0.678, 0.618, -0.368, 192.0, 0.0, 0.0, 0.0, 0.0, 0.0, 0.0, 0.0, 0.0, 0.0, 1.677182203527045E9, 0.0, 2023-02-23 11:56:43.527
23.0, 16652.29548839277, 16724.379864261136, 0.0, 0.0, 0.0, 0.0, 0.0, 0.0, 0.678, 0.618, -0.368, 192.0, 0.0, 0.0, 0.0, 0.0, 0.0, 0.0, 0.0, 0.0, 0.0, 1.677182203535082E9, 0.0, 2023-02-23 11:56:43.535
24.0, 16658.01753497333, 16729.721931185955, 0.0, 0.0, 0.0, 0.0, 0.0, 0.0, 0.678, 0.618, -0.368, 192.0, 0.0, 0.0, 0.0, 0.0, 0.0, 0.0, 0.0, 0.0, 0.0, 1.677182203535096E9, 0.0, 2023-02-23 11:56:43.535
25.0, 16664.700706565465, 16736.248640566904, 0.0, 0.0, 0.0, 0.0, 0.0, 0.0, 0.678, 0.618, -0.368, 192.0, 0.0, 0.0, 0.0, 0.0, 0.0, 0.0, 0.0, 0.0, 0.0, 1.677182203541684E9, 0.0, 2023-02-23 11:56:43.541
26.0, 16673.30612818076, 16730.79481491981, 0.0, 0.0, 0.0, 0.0, 0.0, 0.0, 0.678, 0.618, -0.368, 192.0, 0.0, 0.0, 0.0, 0.0, 0.0, 0.0, 0.0, 0.0, 0.0, 1.677182203541707E9, 0.0, 2023-02-23 11:56:43.541
27.0, 16677.91058753855, 16722.79289040481, 0.0, 0.0, 0.0, 0.0, 0.0, 0.0, 0.672, 0.624, -0.372, 192.0, 21.0, 0.0, 19.0, 128.0, 244.0, 96.0, 0.0, 0.0, 0.0, 1.677182203549839E9, 0.0, 2023-02-23 11:56:43.549
28.0, 16675.474247392922, 16725.855079395187, 0.0, 0.0, 0.0, 0.0, 0.0, 0.0, 0.672, 0.624, -0.372, 192.0, 0.0, 0.0, 0.0, 0.0, 0.0, 0.0, 0.0, 0.0, 0.0, 1.677182203549862E9, 0.0, 2023-02-23 11:56:43.549
29.0, 16661.079723963707, 16730.21366956397, 0.0, 0.0, 0.0, 0.0, 0.0, 0.0, 0.672, 0.624, -0.372, 192.0, 0.0, 0.0, 0.0, 0.0, 0.0, 0.0, 0.0, 0.0, 0.0, 1.677182203557622E9, 0.0, 2023-02-23 11:56:43.557
30.0, 16667.427619389015, 16742.037742380828, 0.0, 0.0, 0.0, 0.0, 0.0, 0.0, 0.672, 0.624, -0.372, 192.0, 0.0, 0.0, 0.0, 0.0, 0.0, 0.0, 0.0, 0.0, 0.0, 1.677182203557645E9, 0.0, 2023-02-23 11:56:43.557
31.0, 16662.621994331123, 16738.014428378872, 0.0, 0.0, 0.0, 0.0, 0.0, 0.0, 0.672, 0.624, -0.372, 192.0, 0.0, 0.0, 0.0, 0.0, 0.0, 0.0, 0.0, 0.0, 0.0, 1.677182203563613E9, 0.0, 2023-02-23 11:56:43.563
32.0, 16661.236186174894, 16737.232117322936, 0.0, 0.0, 0.0, 0.0, 0.0, 0.0, 0.672, 0.624, -0.372, 192.0, 0.0, 0.0, 0.0, 0.0, 0.0, 0.0, 0.0, 0.0, 0.0, 1.677182203571318E9, 0.0, 2023-02-23 11:56:43.571
33.0, 16667.53937811129, 16728.02319860735, 0.0, 0.0, 0.0, 0.0, 0.0, 0.0, 0.672, 0.624, -0.372, 192.0, 0.0, 0.0, 0.0, 0.0, 0.0, 0.0, 0.0, 0.0, 0.0, 1.677182203571338E9, 0.0, 2023-02-23 11:56:43.571
34.0, 16664.454837376456, 16718.00961709137, 0.0, 0.0, 0.0, 0.0, 0.0, 0.0, 0.672, 0.624, -0.372, 192.0, 0.0, 0.0, 0.0, 0.0, 0.0, 0.0, 0.0, 0.0, 0.0, 1.677182203579299E9, 0.0, 2023-02-23 11:56:43.579
35.0, 16675.87657879312, 16731.35360853119, 0.0, 0.0, 0.0, 0.0, 0.0, 0.0, 0.672, 0.624, -0.372, 192.0, 0.0, 0.0, 0.0, 0.0, 0.0, 0.0, 0.0, 0.0, 0.0, 1.677182203579312E9, 0.0, 2023-02-23 11:56:43.579
36.0, 16682.69386085199, 16743.93764065953, 0.0, 0.0, 0.0, 0.0, 0.0, 0.0, 0.672, 0.624, -0.372, 192.0, 0.0, 0.0, 0.0, 0.0, 0.0, 0.0, 0.0, 0.0, 0.0, 1.677182203587342E9, 0.0, 2023-02-23 11:56:43.587
37.0, 16669.506331623357, 16736.449806267003, 0.0, 0.0, 0.0, 0.0, 0.0, 0.0, 0.668, 0.63, -0.372, 192.0, 20.0, 224.0, 19.0, 176.0, 244.0, 96.0, 0.0, 0.0, 0.0, 1.677182203587377E9, 0.0, 2023-02-23 11:56:43.587
38.0, 16665.795942043776, 16731.3983120201, 0.0, 0.0, 0.0, 0.0, 0.0, 0.0, 0.668, 0.63, -0.372, 192.0, 0.0, 0.0, 0.0, 0.0, 0.0, 0.0, 0.0, 0.0, 0.0, 1.677182203594097E9, 0.0, 2023-02-23 11:56:43.594
39.0, 16670.176883957014, 16732.381788776136, 0.0, 0.0, 0.0, 0.0, 0.0, 0.0, 0.668, 0.63, -0.372, 192.0, 0.0, 0.0, 0.0, 0.0, 0.0, 0.0, 0.0, 0.0, 0.0, 1.677182203594118E9, 0.0, 2023-02-23 11:56:43.594
40.0, 16677.843532305185, 16738.819091179263, 0.0, 0.0, 0.0, 0.0, 0.0, 0.0, 0.668, 0.63, -0.372, 192.0, 0.0, 0.0, 0.0, 0.0, 0.0, 0.0, 0.0, 0.0, 0.0, 1.677182203602101E9, 0.0, 2023-02-23 11:56:43.602
41.0, 16677.73177358291, 16740.22725107995, 0.0, 0.0, 0.0, 0.0, 0.0, 0.0, 0.668, 0.63, -0.372, 192.0, 0.0, 0.0, 0.0, 0.0, 0.0, 0.0, 0.0, 0.0, 0.0, 1.677182203602125E9, 0.0, 2023-02-23 11:56:43.602
42.0, 16665.661831577043, 16737.634448723133, 0.0, 0.0, 0.0, 0.0, 0.0, 0.0, 0.668, 0.63, -0.372, 192.0, 0.0, 0.0, 0.0, 0.0, 0.0, 0.0, 0.0, 0.0, 0.0, 1.677182203609934E9, 0.0, 2023-02-23 11:56:43.609
43.0, 16661.86203501964, 16730.034855608326, 0.0, 0.0, 0.0, 0.0, 0.0, 0.0, 0.668, 0.63, -0.372, 192.0, 0.0, 0.0, 0.0, 0.0, 0.0, 0.0, 0.0, 0.0, 0.0, 1.677182203609957E9, 0.0, 2023-02-23 11:56:43.609
44.0, 16666.175921699516, 16730.88422189763, 0.0, 0.0, 0.0, 0.0, 0.0, 0.0, 0.668, 0.63, -0.372, 192.0, 0.0, 0.0, 0.0, 0.0, 0.0, 0.0, 0.0, 0.0, 0.0, 1.677182203617057E9, 0.0, 2023-02-23 11:56:43.617
45.0, 16682.224474218427, 16737.299172556304, 0.0, 0.0, 0.0, 0.0, 0.0, 0.0, 0.668, 0.63, -0.372, 192.0, 0.0, 0.0, 0.0, 0.0, 0.0, 0.0, 0.0, 0.0, 0.0, 1.677182203617077E9, 0.0, 2023-02-23 11:56:43.617
46.0, 16685.331366697716, 16749.235004095437, 0.0, 0.0, 0.0, 0.0, 0.0, 0.0, 0.668, 0.63, -0.372, 192.0, 0.0, 0.0, 0.0, 0.0, 0.0, 0.0, 0.0, 0.0, 0.0, 1.677182203623576E9, 0.0, 2023-02-23 11:56:43.623
47.0, 16677.59766311618, 16756.07463789876, 0.0, 0.0, 0.0, 0.0, 0.0, 0.0, 0.666, 0.632, -0.384, 192.0, 20.0, 208.0, 19.0, 192.0, 244.0, 0.0, 0.0, 0.0, 0.0, 1.677182203631551E9, 0.0, 2023-02-23 11:56:43.631
48.0, 16681.509218395855, 16754.93469893154, 0.0, 0.0, 0.0, 0.0, 0.0, 0.0, 0.666, 0.632, -0.384, 192.0, 0.0, 0.0, 0.0, 0.0, 0.0, 0.0, 0.0, 0.0, 0.0, 1.677182203631568E9, 0.0, 2023-02-23 11:56:43.631
49.0, 16678.268215449836, 16740.987210391428, 0.0, 0.0, 0.0, 0.0, 0.0, 0.0, 0.666, 0.632, -0.384, 192.0, 0.0, 0.0, 0.0, 0.0, 0.0, 0.0, 0.0, 0.0, 0.0, 1.677182203639718E9, 0.0, 2023-02-23 11:56:43.639
50.0, 16675.11661948164, 16727.911439885072, 0.0, 0.0, 0.0, 0.0, 0.0, 0.0, 0.666, 0.632, -0.384, 192.0, 0.0, 0.0, 0.0, 0.0, 0.0, 0.0, 0.0, 0.0, 0.0, 1.677182203639737E9, 0.0, 2023-02-23 11:56:43.639
51.0, 16684.817276575242, 16732.06886435376, 0.0, 0.0, 0.0, 0.0, 0.0, 0.0, 0.666, 0.632, -0.384, 192.0, 0.0, 0.0, 0.0, 0.0, 0.0, 0.0, 0.0, 0.0, 0.0, 1.677182203646716E9, 0.0, 2023-02-23 11:56:43.646
52.0, 16688.795887088287, 16742.954163903494, 0.0, 0.0, 0.0, 0.0, 0.0, 0.0, 0.666, 0.632, -0.384, 192.0, 0.0, 0.0, 0.0, 0.0, 0.0, 0.0, 0.0, 0.0, 0.0, 1.677182203646734E9, 0.0, 2023-02-23 11:56:43.646
53.0, 16685.53253239781, 16746.26222208288, 0.0, 0.0, 0.0, 0.0, 0.0, 0.0, 0.666, 0.632, -0.384, 192.0, 0.0, 0.0, 0.0, 0.0, 0.0, 0.0, 0.0, 0.0, 0.0, 1.677182203654379E9, 0.0, 2023-02-23 11:56:43.654
54.0, 16679.721078839433, 16741.143672602615, 0.0, 0.0, 0.0, 0.0, 0.0, 0.0, 0.666, 0.632, -0.384, 192.0, 0.0, 0.0, 0.0, 0.0, 0.0, 0.0, 0.0, 0.0, 0.0, 1.677182203654399E9, 0.0, 2023-02-23 11:56:43.654
55.0, 16674.66958459253, 16734.326390543745, 0.0, 0.0, 0.0, 0.0, 0.0, 0.0, 0.666, 0.632, -0.384, 192.0, 0.0, 0.0, 0.0, 0.0, 0.0, 0.0, 0.0, 0.0, 0.0, 1.677182203662348E9, 0.0, 2023-02-23 11:56:43.662
56.0, 16686.62776787612, 16741.657762725088, 0.0, 0.0, 0.0, 0.0, 0.0, 0.0, 0.666, 0.632, -0.384, 192.0, 0.0, 0.0, 0.0, 0.0, 0.0, 0.0, 0.0, 0.0, 0.0, 1.677182203662362E9, 0.0, 2023-02-23 11:56:43.662
57.0, 16688.997052788385, 16748.184472106037, 0.0, 0.0, 0.0, 0.0, 0.0, 0.0, 0.662, 0.63, -0.384, 192.0, 20.0, 176.0, 19.0, 176.0, 244.0, 0.0, 0.0, 0.0, 0.0, 1.677182203670162E9, 0.0, 2023-02-23 11:56:43.670
58.0, 16678.78230557231, 16742.93181215904, 0.0, 0.0, 0.0, 0.0, 0.0, 0.0, 0.662, 0.63, -0.384, 192.0, 0.0, 0.0, 0.0, 0.0, 0.0, 0.0, 0.0, 0.0, 0.0, 1.677182203670177E9, 0.0, 2023-02-23 11:56:43.670
59.0, 16672.568520613735, 16742.775349947853, 0.0, 0.0, 0.0, 0.0, 0.0, 0.0, 0.662, 0.63, -0.384, 192.0, 0.0, 0.0, 0.0, 0.0, 0.0, 0.0, 0.0, 0.0, 0.0, 1.677182203676914E9, 0.0, 2023-02-23 11:56:43.676
60.0, 16681.039831762297, 16740.987210391428, 0.0, 0.0, 0.0, 0.0, 0.0, 0.0, 0.662, 0.63, -0.384, 192.0, 0.0, 0.0, 0.0, 0.0, 0.0, 0.0, 0.0, 0.0, 0.0, 1.677182203676926E9, 0.0, 2023-02-23 11:56:43.676
61.0, 16684.996090530884, 16755.001754164907, 0.0, 0.0, 0.0, 0.0, 0.0, 0.0, 0.662, 0.63, -0.384, 192.0, 0.0, 0.0, 0.0, 0.0, 0.0, 0.0, 0.0, 0.0, 0.0, 1.677182203683928E9, 0.0, 2023-02-23 11:56:43.683
62.0, 16674.960157270452, 16742.5518325033, 0.0, 0.0, 0.0, 0.0, 0.0, 0.0, 0.662, 0.63, -0.384, 192.0, 0.0, 0.0, 0.0, 0.0, 0.0, 0.0, 0.0, 0.0, 0.0, 1.677182203683947E9, 0.0, 2023-02-23 11:56:43.683
63.0, 16676.144799726582, 16725.4974514839, 0.0, 0.0, 0.0, 0.0, 0.0, 0.0, 0.662, 0.63, -0.384, 192.0, 0.0, 0.0, 0.0, 0.0, 0.0, 0.0, 0.0, 0.0, 0.0, 1.67718220369203E9, 0.0, 2023-02-23 11:56:43.692
64.0, 16685.197256230982, 16724.558678216777, 0.0, 0.0, 0.0, 0.0, 0.0, 0.0, 0.662, 0.63, -0.384, 192.0, 0.0, 0.0, 0.0, 0.0, 0.0, 0.0, 0.0, 0.0, 0.0, 1.677182203699939E9, 0.0, 2023-02-23 11:56:43.699
65.0, 16685.644291120087, 16740.920155158063, 0.0, 0.0, 0.0, 0.0, 0.0, 0.0, 0.662, 0.63, -0.384, 192.0, 0.0, 0.0, 0.0, 0.0, 0.0, 0.0, 0.0, 0.0, 0.0, 1.677182203699956E9, 0.0, 2023-02-23 11:56:43.699
66.0, 16687.186561487506, 16747.379809305647, 0.0, 0.0, 0.0, 0.0, 0.0, 0.0, 0.662, 0.63, -0.384, 192.0, 0.0, 0.0, 0.0, 0.0, 0.0, 0.0, 0.0, 0.0, 0.0, 1.677182203706473E9, 0.0, 2023-02-23 11:56:43.706
67.0, 16691.09811676718, 16742.909460414587, 0.0, 0.0, 0.0, 0.0, 0.0, 0.0, 0.666, 0.632, -0.384, 192.0, 20.0, 208.0, 19.0, 192.0, 244.0, 0.0, 0.0, 0.0, 0.0, 1.67718220370649E9, 0.0, 2023-02-23 11:56:43.706
68.0, 16678.067049749738, 16736.69567545601, 0.0, 0.0, 0.0, 0.0, 0.0, 0.0, 0.666, 0.632, -0.384, 192.0, 0.0, 0.0, 0.0, 0.0, 0.0, 0.0, 0.0, 0.0, 0.0, 1.677182203714555E9, 0.0, 2023-02-23 11:56:43.714
69.0, 16670.378049657113, 16737.567393489768, 0.0, 0.0, 0.0, 0.0, 0.0, 0.0, 0.666, 0.632, -0.384, 192.0, 0.0, 0.0, 0.0, 0.0, 0.0, 0.0, 0.0, 0.0, 0.0, 1.677182203714573E9, 0.0, 2023-02-23 11:56:43.714
70.0, 16681.509218395855, 16746.731608716444, 0.0, 0.0, 0.0, 0.0, 0.0, 0.0, 0.666, 0.632, -0.384, 192.0, 0.0, 0.0, 0.0, 0.0, 0.0, 0.0, 0.0, 0.0, 0.0, 1.677182203722587E9, 0.0, 2023-02-23 11:56:43.722
71.0, 16681.039831762297, 16740.428416780047, 0.0, 0.0, 0.0, 0.0, 0.0, 0.0, 0.666, 0.632, -0.384, 192.0, 0.0, 0.0, 0.0, 0.0, 0.0, 0.0, 0.0, 0.0, 0.0, 1.677182203722599E9, 0.0, 2023-02-23 11:56:43.722
72.0, 16688.6394248771, 16746.5527947608, 0.0, 0.0, 0.0, 0.0, 0.0, 0.0, 0.666, 0.632, -0.384, 192.0, 0.0, 0.0, 0.0, 0.0, 0.0, 0.0, 0.0, 0.0, 0.0, 1.677182203729668E9, 0.0, 2023-02-23 11:56:43.729
73.0, 16687.723003354433, 16742.194204592015, 0.0, 0.0, 0.0, 0.0, 0.0, 0.0, 0.666, 0.632, -0.384, 192.0, 0.0, 0.0, 0.0, 0.0, 0.0, 0.0, 0.0, 0.0, 0.0, 1.677182203729696E9, 0.0, 2023-02-23 11:56:43.729
74.0, 16686.78423008731, 16747.513919772377, 0.0, 0.0, 0.0, 0.0, 0.0, 0.0, 0.666, 0.632, -0.384, 192.0, 0.0, 0.0, 0.0, 0.0, 0.0, 0.0, 0.0, 0.0, 0.0, 1.677182203737184E9, 0.0, 2023-02-23 11:56:43.737
75.0, 16680.324575939725, 16749.07854188425, 0.0, 0.0, 0.0, 0.0, 0.0, 0.0, 0.666, 0.632, -0.384, 192.0, 0.0, 0.0, 0.0, 0.0, 0.0, 0.0, 0.0, 0.0, 0.0, 1.677182203737197E9, 0.0, 2023-02-23 11:56:43.737
76.0, 16674.5354741258, 16745.21169009348, 0.0, 0.0, 0.0, 0.0, 0.0, 0.0, 0.666, 0.632, -0.384, 192.0, 0.0, 0.0, 0.0, 0.0, 0.0, 0.0, 0.0, 0.0, 0.0, 1.67718220374506E9, 0.0, 2023-02-23 11:56:43.745
77.0, 16678.134104983106, 16742.663591225577, 0.0, 0.0, 0.0, 0.0, 0.0, 0.0, 0.666, 0.632, -0.382, 192.0, 20.0, 208.0, 19.0, 192.0, 244.0, 16.0, 0.0, 0.0, 0.0, 1.677182203745076E9, 0.0, 2023-02-23 11:56:43.745
78.0, 16675.988337515395, 16737.61209697868, 0.0, 0.0, 0.0, 0.0, 0.0, 0.0, 0.666, 0.632, -0.382, 192.0, 0.0, 0.0, 0.0, 0.0, 0.0, 0.0, 0.0, 0.0, 0.0, 1.677182203752365E9, 0.0, 2023-02-23 11:56:43.752
79.0, 16684.191427730493, 16748.184472106037, 0.0, 0.0, 0.0, 0.0, 0.0, 0.0, 0.666, 0.632, -0.382, 192.0, 0.0, 0.0, 0.0, 0.0, 0.0, 0.0, 0.0, 0.0, 0.0, 1.677182203758916E9, 0.0, 2023-02-23 11:56:43.758
80.0, 16688.102983010172, 16743.088274370228, 0.0, 0.0, 0.0, 0.0, 0.0, 0.0, 0.666, 0.632, -0.382, 192.0, 0.0, 0.0, 0.0, 0.0, 0.0, 0.0, 0.0, 0.0, 0.0, 1.677182203758937E9, 0.0, 2023-02-23 11:56:43.758
81.0, 16686.895988809585, 16743.55766100379, 0.0, 0.0, 0.0, 0.0, 0.0, 0.0, 0.666, 0.632, -0.382, 192.0, 0.0, 0.0, 0.0, 0.0, 0.0, 0.0, 0.0, 0.0, 0.0, 1.677182203766766E9, 0.0, 2023-02-23 11:56:43.766
82.0, 16680.413982917547, 16733.544079487812, 0.0, 0.0, 0.0, 0.0, 0.0, 0.0, 0.666, 0.632, -0.382, 192.0, 0.0, 0.0, 0.0, 0.0, 0.0, 0.0, 0.0, 0.0, 0.0, 1.677182203766778E9, 0.0, 2023-02-23 11:56:43.766
83.0, 16664.924224010017, 16721.92117237105, 0.0, 0.0, 0.0, 0.0, 0.0, 0.0, 0.666, 0.632, -0.382, 192.0, 0.0, 0.0, 0.0, 0.0, 0.0, 0.0, 0.0, 0.0, 0.0, 1.67718220377497E9, 0.0, 2023-02-23 11:56:43.774
84.0, 16662.756104797852, 16719.171907803047, 0.0, 0.0, 0.0, 0.0, 0.0, 0.0, 0.666, 0.632, -0.382, 192.0, 0.0, 0.0, 0.0, 0.0, 0.0, 0.0, 0.0, 0.0, 0.0, 1.677182203774993E9, 0.0, 2023-02-23 11:56:43.774
85.0, 16668.567558356233, 16719.88716362562, 0.0, 0.0, 0.0, 0.0, 0.0, 0.0, 0.666, 0.632, -0.382, 192.0, 0.0, 0.0, 0.0, 0.0, 0.0, 0.0, 0.0, 0.0, 0.0, 1.677182203782137E9, 0.0, 2023-02-23 11:56:43.782
86.0, 16667.226453688916, 16729.07373059675, 0.0, 0.0, 0.0, 0.0, 0.0, 0.0, 0.666, 0.632, -0.382, 192.0, 0.0, 0.0, 0.0, 0.0, 0.0, 0.0, 0.0, 0.0, 0.0, 1.677182203782152E9, 0.0, 2023-02-23 11:56:43.782
87.0, 16668.433447889503, 16735.779253933342, 0.0, 0.0, 0.0, 0.0, 0.0, 0.0, 0.674, 0.63, -0.376, 192.0, 21.0, 16.0, 19.0, 176.0, 244.0, 64.0, 0.0, 0.0, 0.0, 1.67718220378957E9, 0.0, 2023-02-23 11:56:43.789
88.0, 16667.360564155646, 16739.02025687936, 0.0, 0.0, 0.0, 0.0, 0.0, 0.0, 0.674, 0.63, -0.376, 192.0, 0.0, 0.0, 0.0, 0.0, 0.0, 0.0, 0.0, 0.0, 0.0, 1.677182203789588E9, 0.0, 2023-02-23 11:56:43.789
89.0, 16663.806636787253, 16731.97945737594, 0.0, 0.0, 0.0, 0.0, 0.0, 0.0, 0.674, 0.63, -0.376, 192.0, 0.0, 0.0, 0.0, 0.0, 0.0, 0.0, 0.0, 0.0, 0.0, 1.677182203797529E9, 0.0, 2023-02-23 11:56:43.797
90.0, 16678.58113987221, 16734.50520449939, 0.0, 0.0, 0.0, 0.0, 0.0, 0.0, 0.674, 0.63, -0.376, 192.0, 0.0, 0.0, 0.0, 0.0, 0.0, 0.0, 0.0, 0.0, 0.0, 1.67718220379755E9, 0.0, 2023-02-23 11:56:43.797
91.0, 16685.15255274207, 16738.662628968075, 0.0, 0.0, 0.0, 0.0, 0.0, 0.0, 0.674, 0.63, -0.376, 192.0, 0.0, 0.0, 0.0, 0.0, 0.0, 0.0, 0.0, 0.0, 0.0, 1.6771822038054E9, 0.0, 2023-02-23 11:56:43.805
92.0, 16667.762895555843, 16734.572259732755, 0.0, 0.0, 0.0, 0.0, 0.0, 0.0, 0.674, 0.63, -0.376, 192.0, 0.0, 0.0, 0.0, 0.0, 0.0, 0.0, 0.0, 0.0, 0.0, 1.677182203805413E9, 0.0, 2023-02-23 11:56:43.805
93.0, 16670.802732801763, 16729.811338163774, 0.0, 0.0, 0.0, 0.0, 0.0, 0.0, 0.674, 0.63, -0.376, 192.0, 0.0, 0.0, 0.0, 0.0, 0.0, 0.0, 0.0, 0.0, 0.0, 1.677182203811631E9, 0.0, 2023-02-23 11:56:43.811
94.0, 16670.3333461682, 16734.728721943942, 0.0, 0.0, 0.0, 0.0, 0.0, 0.0, 0.674, 0.63, -0.376, 192.0, 0.0, 0.0, 0.0, 0.0, 0.0, 0.0, 0.0, 0.0, 0.0, 1.677182203819145E9, 0.0, 2023-02-23 11:56:43.819
95.0, 16682.090363751693, 16756.476969298958, 0.0, 0.0, 0.0, 0.0, 0.0, 0.0, 0.674, 0.63, -0.376, 192.0, 0.0, 0.0, 0.0, 0.0, 0.0, 0.0, 0.0, 0.0, 0.0, 1.67718220381917E9, 0.0, 2023-02-23 11:56:43.819
96.0, 16694.987320302407, 16759.047419911316, 0.0, 0.0, 0.0, 0.0, 0.0, 0.0, 0.674, 0.63, -0.376, 192.0, 0.0, 0.0, 0.0, 0.0, 0.0, 0.0, 0.0, 0.0, 0.0, 1.677182203827817E9, 0.0, 2023-02-23 11:56:43.827
97.0, 16676.278910193316, 16736.963896389472, 0.0, 0.0, 0.0, 0.0, 0.0, 0.0, 0.674, 0.636, -0.368, 192.0, 21.0, 16.0, 19.0, 224.0, 244.0, 128.0, 0.0, 0.0, 0.0, 1.677182203827837E9, 0.0, 2023-02-23 11:56:43.827
98.0, 16666.66766007753, 16724.78219566133, 0.0, 0.0, 0.0, 0.0, 0.0, 0.0, 0.674, 0.636, -0.368, 192.0, 0.0, 0.0, 0.0, 0.0, 0.0, 0.0, 0.0, 0.0, 0.0, 1.677182203834508E9, 0.0, 2023-02-23 11:56:43.834
99.0, 16670.802732801763, 16722.099986326695, 0.0, 0.0, 0.0, 0.0, 0.0, 0.0, 0.674, 0.636, -0.368, 192.0, 0.0, 0.0, 0.0, 0.0, 0.0, 0.0, 0.0, 0.0, 0.0, 1.677182203834532E9, 0.0, 2023-02-23 11:56:43.834
100.0, 16677.687070093998, 16723.664608438565, 0.0, 0.0, 0.0, 0.0, 0.0, 0.0, 0.674, 0.636, -0.368, 192.0, 0.0, 0.0, 0.0, 0.0, 0.0, 0.0, 0.0, 0.0, 0.0, 1.677182203842314E9, 0.0, 2023-02-23 11:56:43.842
101.0, 16684.54905564178, 16734.46050101048, 0.0, 0.0, 0.0, 0.0, 0.0, 0.0, 0.674, 0.636, -0.368, 192.0, 0.0, 0.0, 0.0, 0.0, 0.0, 0.0, 0.0, 0.0, 0.0, 1.677182203842341E9, 0.0, 2023-02-23 11:56:43.842
102.0, 16687.745355098887, 16733.387617276625, 0.0, 0.0, 0.0, 0.0, 0.0, 0.0, 0.674, 0.636, -0.368, 192.0, 0.0, 0.0, 0.0, 0.0, 0.0, 0.0, 0.0, 0.0, 0.0, 1.677182203849364E9, 0.0, 2023-02-23 11:56:43.849
103.0, 16682.604453874166, 16728.13495732963, 0.0, 0.0, 0.0, 0.0, 0.0, 0.0, 0.674, 0.636, -0.368, 192.0, 0.0, 0.0, 0.0, 0.0, 0.0, 0.0, 0.0, 0.0, 0.0, 1.677182203849378E9, 0.0, 2023-02-23 11:56:43.849
104.0, 16684.191427730493, 16733.141748087615, 0.0, 0.0, 0.0, 0.0, 0.0, 0.0, 0.674, 0.636, -0.368, 192.0, 0.0, 0.0, 0.0, 0.0, 0.0, 0.0, 0.0, 0.0, 0.0, 1.677182203856889E9, 0.0, 2023-02-23 11:56:43.856
105.0, 16697.960102314963, 16737.54504174531, 0.0, 0.0, 0.0, 0.0, 0.0, 0.0, 0.674, 0.636, -0.368, 192.0, 0.0, 0.0, 0.0, 0.0, 0.0, 0.0, 0.0, 0.0, 0.0, 1.677182203856902E9, 0.0, 2023-02-23 11:56:43.856
106.0, 16683.029137018817, 16729.58782071922, 0.0, 0.0, 0.0, 0.0, 0.0, 0.0, 0.672, 0.63, -0.372, 192.0, 21.0, 0.0, 19.0, 176.0, 244.0, 96.0, 0.0, 0.0, 0.0, 1.677182203864981E9, 0.0, 2023-02-23 11:56:43.864
107.0, 16671.87561653562, 16731.755939931387, 0.0, 0.0, 0.0, 0.0, 0.0, 0.0, 0.672, 0.63, -0.372, 192.0, 0.0, 0.0, 0.0, 0.0, 0.0, 0.0, 0.0, 0.0, 0.0, 1.677182203865003E9, 0.0, 2023-02-23 11:56:43.865
108.0, 16675.92128228203, 16728.671399196555, 0.0, 0.0, 0.0, 0.0, 0.0, 0.0, 0.672, 0.63, -0.372, 192.0, 0.0, 0.0, 0.0, 0.0, 0.0, 0.0, 0.0, 0.0, 0.0, 1.677182203872093E9, 0.0, 2023-02-23 11:56:43.872
109.0, 16672.97085201393, 16719.64129443661, 0.0, 0.0, 0.0, 0.0, 0.0, 0.0, 0.672, 0.63, -0.372, 192.0, 0.0, 0.0, 0.0, 0.0, 0.0, 0.0, 0.0, 0.0, 0.0, 1.677182203879119E9, 0.0, 2023-02-23 11:56:43.879
110.0, 16674.91545378154, 16723.41873924956, 0.0, 0.0, 0.0, 0.0, 0.0, 0.0, 0.672, 0.63, -0.372, 192.0, 0.0, 0.0, 0.0, 0.0, 0.0, 0.0, 0.0, 0.0, 0.0, 1.677182203879138E9, 0.0, 2023-02-23 11:56:43.879
111.0, 16662.28671816429, 16721.585896204222, 0.0, 0.0, 0.0, 0.0, 0.0, 0.0, 0.672, 0.63, -0.372, 192.0, 0.0, 0.0, 0.0, 0.0, 0.0, 0.0, 0.0, 0.0, 0.0, 1.677182203886634E9, 0.0, 2023-02-23 11:56:43.886
112.0, 16668.433447889503, 16729.252544552393, 0.0, 0.0, 0.0, 0.0, 0.0, 0.0, 0.672, 0.63, -0.372, 192.0, 0.0, 0.0, 0.0, 0.0, 0.0, 0.0, 0.0, 0.0, 0.0, 1.677182203886654E9, 0.0, 2023-02-23 11:56:43.886
113.0, 16676.189503215493, 16737.92502140105, 0.0, 0.0, 0.0, 0.0, 0.0, 0.0, 0.672, 0.63, -0.372, 192.0, 0.0, 0.0, 0.0, 0.0, 0.0, 0.0, 0.0, 0.0, 0.0, 1.677182203894648E9, 0.0, 2023-02-23 11:56:43.894
114.0, 16681.173942229027, 16728.805509663285, 0.0, 0.0, 0.0, 0.0, 0.0, 0.0, 0.672, 0.63, -0.372, 192.0, 0.0, 0.0, 0.0, 0.0, 0.0, 0.0, 0.0, 0.0, 0.0, 1.677182203894661E9, 0.0, 2023-02-23 11:56:43.894
115.0, 16689.6899568665, 16731.621829464653, 0.0, 0.0, 0.0, 0.0, 0.0, 0.0, 0.672, 0.63, -0.372, 192.0, 0.0, 0.0, 0.0, 0.0, 0.0, 0.0, 0.0, 0.0, 0.0, 1.677182203902514E9, 0.0, 2023-02-23 11:56:43.902
116.0, 16696.149611014083, 16747.715085472475, 0.0, 0.0, 0.0, 0.0, 0.0, 0.0, 0.674, 0.634, -0.376, 192.0, 21.0, 16.0, 19.0, 208.0, 244.0, 64.0, 0.0, 0.0, 0.0, 1.677182203902526E9, 0.0, 2023-02-23 11:56:43.902
117.0, 16697.602474403677, 16746.239870338424, 0.0, 0.0, 0.0, 0.0, 0.0, 0.0, 0.674, 0.634, -0.376, 192.0, 0.0, 0.0, 0.0, 0.0, 0.0, 0.0, 0.0, 0.0, 0.0, 1.677182203909148E9, 0.0, 2023-02-23 11:56:43.909
118.0, 16696.127259269626, 16742.864756925675, 0.0, 0.0, 0.0, 0.0, 0.0, 0.0, 0.674, 0.634, -0.376, 192.0, 0.0, 0.0, 0.0, 0.0, 0.0, 0.0, 0.0, 0.0, 0.0, 1.677182203909166E9, 0.0, 2023-02-23 11:56:43.909
119.0, 16700.865829094153, 16735.913364400072, 0.0, 0.0, 0.0, 0.0, 0.0, 0.0, 0.674, 0.634, -0.376, 192.0, 0.0, 0.0, 0.0, 0.0, 0.0, 0.0, 0.0, 0.0, 0.0, 1.677182203917222E9, 0.0, 2023-02-23 11:56:43.917
120.0, 16683.5879306302, 16729.677227697044, 0.0, 0.0, 0.0, 0.0, 0.0, 0.0, 0.674, 0.634, -0.376, 192.0, 0.0, 0.0, 0.0, 0.0, 0.0, 0.0, 0.0, 0.0, 0.0, 1.67718220391724E9, 0.0, 2023-02-23 11:56:43.917
121.0, 16681.6880323515, 16742.06009412528, 0.0, 0.0, 0.0, 0.0, 0.0, 0.0, 0.674, 0.634, -0.376, 192.0, 0.0, 0.0, 0.0, 0.0, 0.0, 0.0, 0.0, 0.0, 0.0, 1.677182203925411E9, 0.0, 2023-02-23 11:56:43.925
122.0, 16690.561674900255, 16749.391466306624, 0.0, 0.0, 0.0, 0.0, 0.0, 0.0, 0.674, 0.634, -0.376, 192.0, 0.0, 0.0, 0.0, 0.0, 0.0, 0.0, 0.0, 0.0, 0.0, 1.677182203925437E9, 0.0, 2023-02-23 11:56:43.925
123.0, 16686.985395787407, 16734.12522484365, 0.0, 0.0, 0.0, 0.0, 0.0, 0.0, 0.674, 0.634, -0.376, 192.0, 0.0, 0.0, 0.0, 0.0, 0.0, 0.0, 0.0, 0.0, 0.0, 1.677182203932327E9, 0.0, 2023-02-23 11:56:43.932
124.0, 16688.21474173245, 16732.046512609304, 0.0, 0.0, 0.0, 0.0, 0.0, 0.0, 0.674, 0.634, -0.376, 192.0, 0.0, 0.0, 0.0, 0.0, 0.0, 0.0, 0.0, 0.0, 0.0, 1.677182203932345E9, 0.0, 2023-02-23 11:56:43.932
125.0, 16689.24292197739, 16734.795777177307, 0.0, 0.0, 0.0, 0.0, 0.0, 0.0, 0.674, 0.634, -0.376, 192.0, 0.0, 0.0, 0.0, 0.0, 0.0, 0.0, 0.0, 0.0, 0.0, 1.677182203938957E9, 0.0, 2023-02-23 11:56:43.938
126.0, 16702.65396865058, 16740.540175502323, 0.0, 0.0, 0.0, 0.0, 0.0, 0.0, 0.67, 0.632, -0.376, 192.0, 20.0, 240.0, 19.0, 192.0, 244.0, 64.0, 0.0, 0.0, 0.0, 1.677182203947055E9, 0.0, 2023-02-23 11:56:43.947
127.0, 16695.88139008062, 16750.531405273843, 0.0, 0.0, 0.0, 0.0, 0.0, 0.0, 0.67, 0.632, -0.376, 192.0, 0.0, 0.0, 0.0, 0.0, 0.0, 0.0, 0.0, 0.0, 0.0, 1.677182203947065E9, 0.0, 2023-02-23 11:56:43.947
128.0, 16694.02619529083, 16747.066884883272, 0.0, 0.0, 0.0, 0.0, 0.0, 0.0, 0.67, 0.632, -0.376, 192.0, 0.0, 0.0, 0.0, 0.0, 0.0, 0.0, 0.0, 0.0, 0.0, 1.677182203955088E9, 0.0, 2023-02-23 11:56:43.955
129.0, 16697.513067425858, 16738.79673943481, 0.0, 0.0, 0.0, 0.0, 0.0, 0.0, 0.67, 0.632, -0.376, 192.0, 0.0, 0.0, 0.0, 0.0, 0.0, 0.0, 0.0, 0.0, 0.0, 1.67718220395511E9, 0.0, 2023-02-23 11:56:43.955
130.0, 16685.666642864544, 16731.64418120911, 0.0, 0.0, 0.0, 0.0, 0.0, 0.0, 0.67, 0.632, -0.376, 192.0, 0.0, 0.0, 0.0, 0.0, 0.0, 0.0, 0.0, 0.0, 0.0, 1.677182203961934E9, 0.0, 2023-02-23 11:56:43.961
131.0, 16674.423715403525, 16727.710274184978, 0.0, 0.0, 0.0, 0.0, 0.0, 0.0, 0.67, 0.632, -0.376, 192.0, 0.0, 0.0, 0.0, 0.0, 0.0, 0.0, 0.0, 0.0, 0.0, 1.677182203961953E9, 0.0, 2023-02-23 11:56:43.961
132.0, 16686.314843453747, 16734.907535899583, 0.0, 0.0, 0.0, 0.0, 0.0, 0.0, 0.67, 0.632, -0.376, 192.0, 0.0, 0.0, 0.0, 0.0, 0.0, 0.0, 0.0, 0.0, 0.0, 1.677182203969664E9, 0.0, 2023-02-23 11:56:43.969
133.0, 16698.29537848179, 16741.41189353608, 0.0, 0.0, 0.0, 0.0, 0.0, 0.0, 0.67, 0.632, -0.376, 192.0, 0.0, 0.0, 0.0, 0.0, 0.0, 0.0, 0.0, 0.0, 0.0, 1.677182203969687E9, 0.0, 2023-02-23 11:56:43.969
134.0, 16696.954273814474, 16741.680114469542, 0.0, 0.0, 0.0, 0.0, 0.0, 0.0, 0.67, 0.632, -0.376, 192.0, 0.0, 0.0, 0.0, 0.0, 0.0, 0.0, 0.0, 0.0, 0.0, 1.677182203977654E9, 0.0, 2023-02-23 11:56:43.977
135.0, 16690.405212689067, 16741.88128016964, 0.0, 0.0, 0.0, 0.0, 0.0, 0.0, 0.67, 0.632, -0.376, 192.0, 0.0, 0.0, 0.0, 0.0, 0.0, 0.0, 0.0, 0.0, 0.0, 1.67718220397767E9, 0.0, 2023-02-23 11:56:43.977
136.0, 16689.622901633134, 16741.74716970291, 0.0, 0.0, 0.0, 0.0, 0.0, 0.0, 0.674, 0.628, -0.38, 192.0, 21.0, 16.0, 19.0, 160.0, 244.0, 32.0, 0.0, 0.0, 0.0, 1.677182203985631E9, 0.0, 2023-02-23 11:56:43.985
137.0, 16695.03202379132, 16744.049399381805, 0.0, 0.0, 0.0, 0.0, 0.0, 0.0, 0.674, 0.628, -0.38, 192.0, 0.0, 0.0, 0.0, 0.0, 0.0, 0.0, 0.0, 0.0, 0.0, 1.677182203985647E9, 0.0, 2023-02-23 11:56:43.985
138.0, 16692.707442367966, 16737.5003382564, 0.0, 0.0, 0.0, 0.0, 0.0, 0.0, 0.674, 0.628, -0.38, 192.0, 0.0, 0.0, 0.0, 0.0, 0.0, 0.0, 0.0, 0.0, 0.0, 1.677182203992137E9, 0.0, 2023-02-23 11:56:43.992
139.0, 16686.493657409388, 16729.677227697044, 0.0, 0.0, 0.0, 0.0, 0.0, 0.0, 0.674, 0.628, -0.38, 192.0, 0.0, 0.0, 0.0, 0.0, 0.0, 0.0, 0.0, 0.0, 0.0, 1.677182203992146E9, 0.0, 2023-02-23 11:56:43.992
140.0, 16684.59375913069, 16729.230192807936, 0.0, 0.0, 0.0, 0.0, 0.0, 0.0, 0.674, 0.628, -0.38, 192.0, 0.0, 0.0, 0.0, 0.0, 0.0, 0.0, 0.0, 0.0, 0.0, 1.677182203999175E9, 0.0, 2023-02-23 11:56:43.999
141.0, 16679.63167186161, 16734.974591132952, 0.0, 0.0, 0.0, 0.0, 0.0, 0.0, 0.674, 0.628, -0.38, 192.0, 0.0, 0.0, 0.0, 0.0, 0.0, 0.0, 0.0, 0.0, 0.0, 1.677182204007263E9, 0.0, 2023-02-23 11:56:44.007
142.0, 16680.30222419527, 16732.78412017633, 0.0, 0.0, 0.0, 0.0, 0.0, 0.0, 0.674, 0.628, -0.38, 192.0, 0.0, 0.0, 0.0, 0.0, 0.0, 0.0, 0.0, 0.0, 0.0, 1.67718220400729E9, 0.0, 2023-02-23 11:56:44.007
143.0, 16685.82310507573, 16734.393445777114, 0.0, 0.0, 0.0, 0.0, 0.0, 0.0, 0.674, 0.628, -0.38, 192.0, 0.0, 0.0, 0.0, 0.0, 0.0, 0.0, 0.0, 0.0, 0.0, 1.677182204015129E9, 0.0, 2023-02-23 11:56:44.015
144.0, 16685.197256230982, 16737.276820811847, 0.0, 0.0, 0.0, 0.0, 0.0, 0.0, 0.674, 0.628, -0.38, 192.0, 0.0, 0.0, 0.0, 0.0, 0.0, 0.0, 0.0, 0.0, 0.0, 1.677182204015154E9, 0.0, 2023-02-23 11:56:44.015
145.0, 16683.87850330812, 16736.449806267003, 0.0, 0.0, 0.0, 0.0, 0.0, 0.0, 0.674, 0.628, -0.38, 192.0, 0.0, 0.0, 0.0, 0.0, 0.0, 0.0, 0.0, 0.0, 0.0, 1.677182204021887E9, 0.0, 2023-02-23 11:56:44.021
146.0, 16684.951387041972, 16741.83657668073, 0.0, 0.0, 0.0, 0.0, 0.0, 0.0, 0.672, 0.632, -0.374, 192.0, 21.0, 0.0, 19.0, 192.0, 244.0, 80.0, 0.0, 0.0, 0.0, 1.677182204021902E9, 0.0, 2023-02-23 11:56:44.021
147.0, 16682.716212596442, 16745.189338349028, 0.0, 0.0, 0.0, 0.0, 0.0, 0.0, 0.672, 0.632, -0.374, 192.0, 0.0, 0.0, 0.0, 0.0, 0.0, 0.0, 0.0, 0.0, 0.0, 1.677182204029917E9, 0.0, 2023-02-23 11:56:44.029
148.0, 16682.962081785452, 16748.363286061678, 0.0, 0.0, 0.0, 0.0, 0.0, 0.0, 0.672, 0.632, -0.374, 192.0, 0.0, 0.0, 0.0, 0.0, 0.0, 0.0, 0.0, 0.0, 0.0, 1.67718220402993E9, 0.0, 2023-02-23 11:56:44.029
149.0, 16695.769631358344, 16757.68396349954, 0.0, 0.0, 0.0, 0.0, 0.0, 0.0, 0.672, 0.632, -0.374, 192.0, 0.0, 0.0, 0.0, 0.0, 0.0, 0.0, 0.0, 0.0, 0.0, 1.677182204037835E9, 0.0, 2023-02-23 11:56:44.037
150.0, 16689.667605122042, 16743.468254025967, 0.0, 0.0, 0.0, 0.0, 0.0, 0.0, 0.672, 0.632, -0.374, 192.0, 0.0, 0.0, 0.0, 0.0, 0.0, 0.0, 0.0, 0.0, 0.0, 1.677182204037846E9, 0.0, 2023-02-23 11:56:44.037
151.0, 16686.985395787407, 16731.97945737594, 0.0, 0.0, 0.0, 0.0, 0.0, 0.0, 0.672, 0.632, -0.374, 192.0, 0.0, 0.0, 0.0, 0.0, 0.0, 0.0, 0.0, 0.0, 0.0, 1.677182204044423E9, 0.0, 2023-02-23 11:56:44.044
152.0, 16687.790058587798, 16730.571297475257, 0.0, 0.0, 0.0, 0.0, 0.0, 0.0, 0.672, 0.632, -0.374, 192.0, 0.0, 0.0, 0.0, 0.0, 0.0, 0.0, 0.0, 0.0, 0.0, 1.677182204044449E9, 0.0, 2023-02-23 11:56:44.044
153.0, 16698.36243371516, 16734.862832410676, 0.0, 0.0, 0.0, 0.0, 0.0, 0.0, 0.672, 0.632, -0.374, 192.0, 0.0, 0.0, 0.0, 0.0, 0.0, 0.0, 0.0, 0.0, 0.0, 1.677182204052544E9, 0.0, 2023-02-23 11:56:44.052
154.0, 16701.64814015009, 16743.423550537056, 0.0, 0.0, 0.0, 0.0, 0.0, 0.0, 0.672, 0.632, -0.374, 192.0, 0.0, 0.0, 0.0, 0.0, 0.0, 0.0, 0.0, 0.0, 0.0, 1.677182204052575E9, 0.0, 2023-02-23 11:56:44.052
155.0, 16687.611244632157, 16742.037742380828, 0.0, 0.0, 0.0, 0.0, 0.0, 0.0, 0.672, 0.632, -0.374, 192.0, 0.0, 0.0, 0.0, 0.0, 0.0, 0.0, 0.0, 0.0, 0.0, 1.677182204059584E9, 0.0, 2023-02-23 11:56:44.059
156.0, 16675.340136926192, 16733.387617276625, 0.0, 0.0, 0.0, 0.0, 0.0, 0.0, 0.676, 0.628, -0.372, 192.0, 21.0, 32.0, 19.0, 160.0, 244.0, 96.0, 0.0, 0.0, 0.0, 1.677182204067509E9, 0.0, 2023-02-23 11:56:44.067
157.0, 16685.510180653357, 16751.872509941164, 0.0, 0.0, 0.0, 0.0, 0.0, 0.0, 0.676, 0.628, -0.372, 192.0, 0.0, 0.0, 0.0, 0.0, 0.0, 0.0, 0.0, 0.0, 0.0, 1.677182204067521E9, 0.0, 2023-02-23 11:56:44.067
158.0, 16681.4868666514, 16749.54792851781, 0.0, 0.0, 0.0, 0.0, 0.0, 0.0, 0.676, 0.628, -0.372, 192.0, 0.0, 0.0, 0.0, 0.0, 0.0, 0.0, 0.0, 0.0, 0.0, 1.677182204074176E9, 0.0, 2023-02-23 11:56:44.074
159.0, 16675.87657879312, 16743.55766100379, 0.0, 0.0, 0.0, 0.0, 0.0, 0.0, 0.676, 0.628, -0.372, 192.0, 0.0, 0.0, 0.0, 0.0, 0.0, 0.0, 0.0, 0.0, 0.0, 1.677182204074191E9, 0.0, 2023-02-23 11:56:44.074
160.0, 16686.381898687112, 16753.928870431053, 0.0, 0.0, 0.0, 0.0, 0.0, 0.0, 0.676, 0.628, -0.372, 192.0, 0.0, 0.0, 0.0, 0.0, 0.0, 0.0, 0.0, 0.0, 0.0, 1.677182204082191E9, 0.0, 2023-02-23 11:56:44.082
161.0, 16691.54515165629, 16756.722838487964, 0.0, 0.0, 0.0, 0.0, 0.0, 0.0, 0.676, 0.628, -0.372, 192.0, 0.0, 0.0, 0.0, 0.0, 0.0, 0.0, 0.0, 0.0, 0.0, 1.6771822040822E9, 0.0, 2023-02-23 11:56:44.082
162.0, 16700.15057327158, 16749.346762817713, 0.0, 0.0, 0.0, 0.0, 0.0, 0.0, 0.676, 0.628, -0.372, 192.0, 0.0, 0.0, 0.0, 0.0, 0.0, 0.0, 0.0, 0.0, 0.0, 1.677182204090065E9, 0.0, 2023-02-23 11:56:44.090
163.0, 16698.273026737337, 16741.27778306935, 0.0, 0.0, 0.0, 0.0, 0.0, 0.0, 0.676, 0.628, -0.372, 192.0, 0.0, 0.0, 0.0, 0.0, 0.0, 0.0, 0.0, 0.0, 0.0, 1.677182204090081E9, 0.0, 2023-02-23 11:56:44.090
164.0, 16684.54905564178, 16735.399274277603, 0.0, 0.0, 0.0, 0.0, 0.0, 0.0, 0.676, 0.628, -0.372, 192.0, 0.0, 0.0, 0.0, 0.0, 0.0, 0.0, 0.0, 0.0, 0.0, 1.677182204097189E9, 0.0, 2023-02-23 11:56:44.097
165.0, 16688.706480110464, 16744.205861592993, 0.0, 0.0, 0.0, 0.0, 0.0, 0.0, 0.676, 0.628, -0.372, 192.0, 0.0, 0.0, 0.0, 0.0, 0.0, 0.0, 0.0, 0.0, 0.0, 1.677182204097215E9, 0.0, 2023-02-23 11:56:44.097
166.0, 16703.860962851162, 16756.633431510145, 0.0, 0.0, 0.0, 0.0, 0.0, 0.0, 0.666, 0.634, -0.372, 192.0, 20.0, 208.0, 19.0, 208.0, 244.0, 96.0, 0.0, 0.0, 0.0, 1.677182204104913E9, 0.0, 2023-02-23 11:56:44.104
167.0, 16702.341044228204, 16760.477931556456, 0.0, 0.0, 0.0, 0.0, 0.0, 0.0, 0.666, 0.634, -0.372, 192.0, 0.0, 0.0, 0.0, 0.0, 0.0, 0.0, 0.0, 0.0, 0.0, 1.677182204104963E9, 0.0, 2023-02-23 11:56:44.104
168.0, 16685.77840158682, 16743.11062611468, 0.0, 0.0, 0.0, 0.0, 0.0, 0.0, 0.666, 0.634, -0.372, 192.0, 0.0, 0.0, 0.0, 0.0, 0.0, 0.0, 0.0, 0.0, 0.0, 1.677182204112894E9, 0.0, 2023-02-23 11:56:44.112
169.0, 16685.040794019795, 16731.040684108815, 0.0, 0.0, 0.0, 0.0, 0.0, 0.0, 0.666, 0.634, -0.372, 192.0, 0.0, 0.0, 0.0, 0.0, 0.0, 0.0, 0.0, 0.0, 0.0, 1.677182204112909E9, 0.0, 2023-02-23 11:56:44.112
170.0, 16686.96304404295, 16736.963896389472, 0.0, 0.0, 0.0, 0.0, 0.0, 0.0, 0.666, 0.634, -0.372, 192.0, 0.0, 0.0, 0.0, 0.0, 0.0, 0.0, 0.0, 0.0, 0.0, 1.677182204119923E9, 0.0, 2023-02-23 11:56:44.119
171.0, 16686.11367775365, 16740.607230735688, 0.0, 0.0, 0.0, 0.0, 0.0, 0.0, 0.666, 0.634, -0.372, 192.0, 0.0, 0.0, 0.0, 0.0, 0.0, 0.0, 0.0, 0.0, 0.0, 1.677182204126913E9, 0.0, 2023-02-23 11:56:44.126
172.0, 16686.62776787612, 16745.725780215955, 0.0, 0.0, 0.0, 0.0, 0.0, 0.0, 0.666, 0.634, -0.372, 192.0, 0.0, 0.0, 0.0, 0.0, 0.0, 0.0, 0.0, 0.0, 0.0, 1.677182204126922E9, 0.0, 2023-02-23 11:56:44.126
173.0, 16675.943634026484, 16735.73455044443, 0.0, 0.0, 0.0, 0.0, 0.0, 0.0, 0.666, 0.634, -0.372, 192.0, 0.0, 0.0, 0.0, 0.0, 0.0, 0.0, 0.0, 0.0, 0.0, 1.677182204135968E9, 0.0, 2023-02-23 11:56:44.135
174.0, 16675.809523559754, 16730.392483519612, 0.0, 0.0, 0.0, 0.0, 0.0, 0.0, 0.666, 0.634, -0.372, 192.0, 0.0, 0.0, 0.0, 0.0, 0.0, 0.0, 0.0, 0.0, 0.0, 1.677182204135986E9, 0.0, 2023-02-23 11:56:44.135
175.0, 16680.45868640646, 16733.65583821009, 0.0, 0.0, 0.0, 0.0, 0.0, 0.0, 0.666, 0.634, -0.372, 192.0, 0.0, 0.0, 0.0, 0.0, 0.0, 0.0, 0.0, 0.0, 0.0, 1.677182204142364E9, 0.0, 2023-02-23 11:56:44.142
176.0, 16685.59958763118, 16735.287515555327, 0.0, 0.0, 0.0, 0.0, 0.0, 0.0, 0.678, 0.628, -0.372, 192.0, 21.0, 48.0, 19.0, 160.0, 244.0, 96.0, 0.0, 0.0, 0.0, 1.677182204142379E9, 0.0, 2023-02-23 11:56:44.142
177.0, 16684.258482963858, 16742.708294714488, 0.0, 0.0, 0.0, 0.0, 0.0, 0.0, 0.678, 0.628, -0.372, 192.0, 0.0, 0.0, 0.0, 0.0, 0.0, 0.0, 0.0, 0.0, 0.0, 1.677182204150539E9, 0.0, 2023-02-23 11:56:44.150
178.0, 16672.233244446903, 16734.326390543745, 0.0, 0.0, 0.0, 0.0, 0.0, 0.0, 0.678, 0.628, -0.372, 192.0, 0.0, 0.0, 0.0, 0.0, 0.0, 0.0, 0.0, 0.0, 0.0, 1.677182204150558E9, 0.0, 2023-02-23 11:56:44.150
179.0, 16669.886311279097, 16718.83663163622, 0.0, 0.0, 0.0, 0.0, 0.0, 0.0, 0.678, 0.628, -0.372, 192.0, 0.0, 0.0, 0.0, 0.0, 0.0, 0.0, 0.0, 0.0, 0.0, 1.677182204157182E9, 0.0, 2023-02-23 11:56:44.157
180.0, 16680.704555595465, 16714.254524022883, 0.0, 0.0, 0.0, 0.0, 0.0, 0.0, 0.678, 0.628, -0.372, 192.0, 0.0, 0.0, 0.0, 0.0, 0.0, 0.0, 0.0, 0.0, 0.0, 1.677182204157193E9, 0.0, 2023-02-23 11:56:44.157
181.0, 16684.59375913069, 16727.50910848488, 0.0, 0.0, 0.0, 0.0, 0.0, 0.0, 0.678, 0.628, -0.372, 192.0, 0.0, 0.0, 0.0, 0.0, 0.0, 0.0, 0.0, 0.0, 0.0, 1.677182204165081E9, 0.0, 2023-02-23 11:56:44.165
182.0, 16690.002881288874, 16736.583916733733, 0.0, 0.0, 0.0, 0.0, 0.0, 0.0, 0.678, 0.628, -0.372, 192.0, 0.0, 0.0, 0.0, 0.0, 0.0, 0.0, 0.0, 0.0, 0.0, 1.677182204165092E9, 0.0, 2023-02-23 11:56:44.165
183.0, 16692.55098015678, 16738.84144292372, 0.0, 0.0, 0.0, 0.0, 0.0, 0.0, 0.678, 0.628, -0.372, 192.0, 0.0, 0.0, 0.0, 0.0, 0.0, 0.0, 0.0, 0.0, 0.0, 1.6771822041731E9, 0.0, 2023-02-23 11:56:44.173
184.0, 16686.5383608983, 16738.79673943481, 0.0, 0.0, 0.0, 0.0, 0.0, 0.0, 0.678, 0.628, -0.372, 192.0, 0.0, 0.0, 0.0, 0.0, 0.0, 0.0, 0.0, 0.0, 0.0, 1.677182204173145E9, 0.0, 2023-02-23 11:56:44.173
185.0, 16670.266290934836, 16724.290457283314, 0.0, 0.0, 0.0, 0.0, 0.0, 0.0, 0.674, 0.63, -0.382, 192.0, 21.0, 16.0, 19.0, 176.0, 244.0, 16.0, 0.0, 0.0, 0.0, 1.677182204180257E9, 0.0, 2023-02-23 11:56:44.180
186.0, 16662.510235608846, 16723.77636716084, 0.0, 0.0, 0.0, 0.0, 0.0, 0.0, 0.674, 0.63, -0.382, 192.0, 0.0, 0.0, 0.0, 0.0, 0.0, 0.0, 0.0, 0.0, 0.0, 1.677182204180277E9, 0.0, 2023-02-23 11:56:44.180
187.0, 16664.477189120913, 16722.256448537883, 0.0, 0.0, 0.0, 0.0, 0.0, 0.0, 0.674, 0.63, -0.382, 192.0, 0.0, 0.0, 0.0, 0.0, 0.0, 0.0, 0.0, 0.0, 0.0, 1.677182204186768E9, 0.0, 2023-02-23 11:56:44.186
188.0, 16670.467456634935, 16722.099986326695, 0.0, 0.0, 0.0, 0.0, 0.0, 0.0, 0.674, 0.63, -0.382, 192.0, 0.0, 0.0, 0.0, 0.0, 0.0, 0.0, 0.0, 0.0, 0.0, 1.677182204194747E9, 0.0, 2023-02-23 11:56:44.194
189.0, 16676.90475903806, 16728.291419540816, 0.0, 0.0, 0.0, 0.0, 0.0, 0.0, 0.674, 0.63, -0.382, 192.0, 0.0, 0.0, 0.0, 0.0, 0.0, 0.0, 0.0, 0.0, 0.0, 1.677182204194764E9, 0.0, 2023-02-23 11:56:44.194
190.0, 16679.45285790597, 16729.699579441498, 0.0, 0.0, 0.0, 0.0, 0.0, 0.0, 0.674, 0.63, -0.382, 192.0, 0.0, 0.0, 0.0, 0.0, 0.0, 0.0, 0.0, 0.0, 0.0, 1.677182204202644E9, 0.0, 2023-02-23 11:56:44.202
191.0, 16680.369279428636, 16732.247678309403, 0.0, 0.0, 0.0, 0.0, 0.0, 0.0, 0.674, 0.63, -0.382, 192.0, 0.0, 0.0, 0.0, 0.0, 0.0, 0.0, 0.0, 0.0, 0.0, 1.67718220420266E9, 0.0, 2023-02-23 11:56:44.202
192.0, 16679.050526505773, 16730.750111430898, 0.0, 0.0, 0.0, 0.0, 0.0, 0.0, 0.674, 0.63, -0.382, 192.0, 0.0, 0.0, 0.0, 0.0, 0.0, 0.0, 0.0, 0.0, 0.0, 1.677182204209899E9, 0.0, 2023-02-23 11:56:44.209
193.0, 16684.414945175045, 16739.288477812825, 0.0, 0.0, 0.0, 0.0, 0.0, 0.0, 0.674, 0.63, -0.382, 192.0, 0.0, 0.0, 0.0, 0.0, 0.0, 0.0, 0.0, 0.0, 0.0, 1.67718220420991E9, 0.0, 2023-02-23 11:56:44.209
194.0, 16689.891122566598, 16740.517823757866, 0.0, 0.0, 0.0, 0.0, 0.0, 0.0, 0.674, 0.63, -0.382, 192.0, 0.0, 0.0, 0.0, 0.0, 0.0, 0.0, 0.0, 0.0, 0.0, 1.677182204217263E9, 0.0, 2023-02-23 11:56:44.217
195.0, 16688.751183599376, 16743.11062611468, 0.0, 0.0, 0.0, 0.0, 0.0, 0.0, 0.674, 0.626, -0.38, 192.0, 21.0, 16.0, 19.0, 144.0, 244.0, 32.0, 0.0, 0.0, 0.0, 1.677182204217276E9, 0.0, 2023-02-23 11:56:44.217
196.0, 16686.672471365033, 16738.863794668174, 0.0, 0.0, 0.0, 0.0, 0.0, 0.0, 0.674, 0.626, -0.38, 192.0, 0.0, 0.0, 0.0, 0.0, 0.0, 0.0, 0.0, 0.0, 0.0, 1.677182204225201E9, 0.0, 2023-02-23 11:56:44.225
197.0, 16680.749259084376, 16728.78315791883, 0.0, 0.0, 0.0, 0.0, 0.0, 0.0, 0.674, 0.626, -0.38, 192.0, 0.0, 0.0, 0.0, 0.0, 0.0, 0.0, 0.0, 0.0, 0.0, 1.677182204225216E9, 0.0, 2023-02-23 11:56:44.225
198.0, 16680.615148617646, 16723.195221805003, 0.0, 0.0, 0.0, 0.0, 0.0, 0.0, 0.674, 0.626, -0.38, 192.0, 0.0, 0.0, 0.0, 0.0, 0.0, 0.0, 0.0, 0.0, 0.0, 1.677182204232382E9, 0.0, 2023-02-23 11:56:44.232
199.0, 16684.191427730493, 16730.59364921971, 0.0, 0.0, 0.0, 0.0, 0.0, 0.0, 0.674, 0.626, -0.38, 192.0, 0.0, 0.0, 0.0, 0.0, 0.0, 0.0, 0.0, 0.0, 0.0, 1.6771822042324E9, 0.0, 2023-02-23 11:56:44.232
200.0, 16683.207950974458, 16732.20297482049, 0.0, 0.0, 0.0, 0.0, 0.0, 0.0, 0.674, 0.626, -0.38, 192.0, 0.0, 0.0, 0.0, 0.0, 0.0, 0.0, 0.0, 0.0, 0.0, 1.677182204239915E9, 0.0, 2023-02-23 11:56:44.239
201.0, 16688.102983010172, 16734.5499079883, 0.0, 0.0, 0.0, 0.0, 0.0, 0.0, 0.674, 0.626, -0.38, 192.0, 0.0, 0.0, 0.0, 0.0, 0.0, 0.0, 0.0, 0.0, 0.0, 1.677182204239981E9, 0.0, 2023-02-23 11:56:44.239
202.0, 16693.35564295717, 16736.874489411653, 0.0, 0.0, 0.0, 0.0, 0.0, 0.0, 0.674, 0.626, -0.38, 192.0, 0.0, 0.0, 0.0, 0.0, 0.0, 0.0, 0.0, 0.0, 0.0, 1.677182204246931E9, 0.0, 2023-02-23 11:56:44.246
203.0, 16686.940692298496, 16732.113567842673, 0.0, 0.0, 0.0, 0.0, 0.0, 0.0, 0.674, 0.626, -0.38, 192.0, 0.0, 0.0, 0.0, 0.0, 0.0, 0.0, 0.0, 0.0, 0.0, 1.677182204255026E9, 0.0, 2023-02-23 11:56:44.255
204.0, 16684.97373878643, 16739.46729176847, 0.0, 0.0, 0.0, 0.0, 0.0, 0.0, 0.674, 0.626, -0.38, 192.0, 0.0, 0.0, 0.0, 0.0, 0.0, 0.0, 0.0, 0.0, 0.0, 1.677182204255043E9, 0.0, 2023-02-23 11:56:44.255
205.0, 16693.623863890632, 16739.04260862382, 0.0, 0.0, 0.0, 0.0, 0.0, 0.0, 0.68, 0.626, -0.38, 192.0, 21.0, 64.0, 19.0, 144.0, 244.0, 32.0, 0.0, 0.0, 0.0, 1.677182204262086E9, 0.0, 2023-02-23 11:56:44.262
206.0, 16691.67926212302, 16742.529480758843, 0.0, 0.0, 0.0, 0.0, 0.0, 0.0, 0.68, 0.626, -0.38, 192.0, 0.0, 0.0, 0.0, 0.0, 0.0, 0.0, 0.0, 0.0, 0.0, 1.677182204262097E9, 0.0, 2023-02-23 11:56:44.262
207.0, 16685.95721554246, 16746.79866394981, 0.0, 0.0, 0.0, 0.0, 0.0, 0.0, 0.68, 0.626, -0.38, 192.0, 0.0, 0.0, 0.0, 0.0, 0.0, 0.0, 0.0, 0.0, 0.0, 1.677182204269625E9, 0.0, 2023-02-23 11:56:44.269
208.0, 16683.990262030395, 16737.321524300758, 0.0, 0.0, 0.0, 0.0, 0.0, 0.0, 0.68, 0.626, -0.38, 192.0, 0.0, 0.0, 0.0, 0.0, 0.0, 0.0, 0.0, 0.0, 0.0, 1.677182204269656E9, 0.0, 2023-02-23 11:56:44.269
209.0, 16678.40232591657, 16731.82299516475, 0.0, 0.0, 0.0, 0.0, 0.0, 0.0, 0.68, 0.626, -0.38, 192.0, 0.0, 0.0, 0.0, 0.0, 0.0, 0.0, 0.0, 0.0, 0.0, 1.677182204278952E9, 0.0, 2023-02-23 11:56:44.278
210.0, 16688.102983010172, 16737.36622778967, 0.0, 0.0, 0.0, 0.0, 0.0, 0.0, 0.68, 0.626, -0.38, 192.0, 0.0, 0.0, 0.0, 0.0, 0.0, 0.0, 0.0, 0.0, 0.0, 1.677182204278973E9, 0.0, 2023-02-23 11:56:44.278
211.0, 16693.757974357366, 16741.83657668073, 0.0, 0.0, 0.0, 0.0, 0.0, 0.0, 0.68, 0.626, -0.38, 192.0, 0.0, 0.0, 0.0, 0.0, 0.0, 0.0, 0.0, 0.0, 0.0, 1.677182204285596E9, 0.0, 2023-02-23 11:56:44.285
212.0, 16689.377032444125, 16747.290402327824, 0.0, 0.0, 0.0, 0.0, 0.0, 0.0, 0.68, 0.626, -0.38, 192.0, 0.0, 0.0, 0.0, 0.0, 0.0, 0.0, 0.0, 0.0, 0.0, 1.677182204285615E9, 0.0, 2023-02-23 11:56:44.285
213.0, 16684.236131219404, 16745.010524393383, 0.0, 0.0, 0.0, 0.0, 0.0, 0.0, 0.68, 0.626, -0.38, 192.0, 0.0, 0.0, 0.0, 0.0, 0.0, 0.0, 0.0, 0.0, 0.0, 1.677182204292097E9, 0.0, 2023-02-23 11:56:44.292
214.0, 16688.72883185492, 16742.88710867013, 0.0, 0.0, 0.0, 0.0, 0.0, 0.0, 0.68, 0.626, -0.38, 192.0, 0.0, 0.0, 0.0, 0.0, 0.0, 0.0, 0.0, 0.0, 0.0, 1.677182204292117E9, 0.0, 2023-02-23 11:56:44.292
215.0, 16694.316767968747, 16744.339972059726, 0.0, 0.0, 0.0, 0.0, 0.0, 0.0, 0.68, 0.628, -0.38, 192.0, 21.0, 64.0, 19.0, 160.0, 244.0, 32.0, 0.0, 0.0, 0.0, 1.677182204300209E9, 0.0, 2023-02-23 11:56:44.300
216.0, 16698.988282559905, 16747.156291861094, 0.0, 0.0, 0.0, 0.0, 0.0, 0.0, 0.68, 0.628, -0.38, 192.0, 0.0, 0.0, 0.0, 0.0, 0.0, 0.0, 0.0, 0.0, 0.0, 1.677182204300231E9, 0.0, 2023-02-23 11:56:44.300
217.0, 16694.719099368944, 16741.21072783598, 0.0, 0.0, 0.0, 0.0, 0.0, 0.0, 0.68, 0.628, -0.38, 192.0, 0.0, 0.0, 0.0, 0.0, 0.0, 0.0, 0.0, 0.0, 0.0, 1.677182204307291E9, 0.0, 2023-02-23 11:56:44.307
218.0, 16691.16517200055, 16740.78604469133, 0.0, 0.0, 0.0, 0.0, 0.0, 0.0, 0.68, 0.628, -0.38, 192.0, 0.0, 0.0, 0.0, 0.0, 0.0, 0.0, 0.0, 0.0, 0.0, 1.677182204315254E9, 0.0, 2023-02-23 11:56:44.315
219.0, 16693.266235979347, 16747.625678494656, 0.0, 0.0, 0.0, 0.0, 0.0, 0.0, 0.68, 0.628, -0.38, 192.0, 0.0, 0.0, 0.0, 0.0, 0.0, 0.0, 0.0, 0.0, 0.0, 1.677182204315276E9, 0.0, 2023-02-23 11:56:44.315
220.0, 16705.78321287432, 16757.236928610437, 0.0, 0.0, 0.0, 0.0, 0.0, 0.0, 0.68, 0.628, -0.38, 192.0, 0.0, 0.0, 0.0, 0.0, 0.0, 0.0, 0.0, 0.0, 0.0, 1.677182204321808E9, 0.0, 2023-02-23 11:56:44.321
221.0, 16690.31580571125, 16737.96972488996, 0.0, 0.0, 0.0, 0.0, 0.0, 0.0, 0.68, 0.628, -0.38, 192.0, 0.0, 0.0, 0.0, 0.0, 0.0, 0.0, 0.0, 0.0, 0.0, 1.677182204321831E9, 0.0, 2023-02-23 11:56:44.321
222.0, 16673.01555550284, 16724.40221600559, 0.0, 0.0, 0.0, 0.0, 0.0, 0.0, 0.68, 0.628, -0.38, 192.0, 0.0, 0.0, 0.0, 0.0, 0.0, 0.0, 0.0, 0.0, 0.0, 1.677182204329852E9, 0.0, 2023-02-23 11:56:44.329
223.0, 16685.10784925316, 16733.097044598704, 0.0, 0.0, 0.0, 0.0, 0.0, 0.0, 0.68, 0.628, -0.38, 192.0, 0.0, 0.0, 0.0, 0.0, 0.0, 0.0, 0.0, 0.0, 0.0, 1.677182204329874E9, 0.0, 2023-02-23 11:56:44.329
224.0, 16691.478096422925, 16737.679152212044, 0.0, 0.0, 0.0, 0.0, 0.0, 0.0, 0.68, 0.628, -0.38, 192.0, 0.0, 0.0, 0.0, 0.0, 0.0, 0.0, 0.0, 0.0, 0.0, 1.67718220433795E9, 0.0, 2023-02-23 11:56:44.337
225.0, 16693.377994701623, 16742.08244586974, 0.0, 0.0, 0.0, 0.0, 0.0, 0.0, 0.674, 0.628, -0.378, 192.0, 21.0, 16.0, 19.0, 160.0, 244.0, 48.0, 0.0, 0.0, 0.0, 1.677182204337966E9, 0.0, 2023-02-23 11:56:44.337
226.0, 16684.079669008217, 16731.040684108815, 0.0, 0.0, 0.0, 0.0, 0.0, 0.0, 0.674, 0.628, -0.378, 192.0, 0.0, 0.0, 0.0, 0.0, 0.0, 0.0, 0.0, 0.0, 0.0, 1.677182204344855E9, 0.0, 2023-02-23 11:56:44.344
227.0, 16679.00582301686, 16728.11260558517, 0.0, 0.0, 0.0, 0.0, 0.0, 0.0, 0.674, 0.628, -0.378, 192.0, 0.0, 0.0, 0.0, 0.0, 0.0, 0.0, 0.0, 0.0, 0.0, 1.67718220434487E9, 0.0, 2023-02-23 11:56:44.344
228.0, 16685.10784925316, 16729.78898641932, 0.0, 0.0, 0.0, 0.0, 0.0, 0.0, 0.674, 0.628, -0.378, 192.0, 0.0, 0.0, 0.0, 0.0, 0.0, 0.0, 0.0, 0.0, 0.0, 1.677182204352509E9, 0.0, 2023-02-23 11:56:44.352
229.0, 16691.455744678467, 16731.77829167584, 0.0, 0.0, 0.0, 0.0, 0.0, 0.0, 0.674, 0.628, -0.378, 192.0, 0.0, 0.0, 0.0, 0.0, 0.0, 0.0, 0.0, 0.0, 0.0, 1.677182204352527E9, 0.0, 2023-02-23 11:56:44.352
230.0, 16692.238055734404, 16737.634448723133, 0.0, 0.0, 0.0, 0.0, 0.0, 0.0, 0.674, 0.628, -0.378, 192.0, 0.0, 0.0, 0.0, 0.0, 0.0, 0.0, 0.0, 0.0, 0.0, 1.677182204360583E9, 0.0, 2023-02-23 11:56:44.360
231.0, 16681.464514906947, 16728.894916641108, 0.0, 0.0, 0.0, 0.0, 0.0, 0.0, 0.674, 0.628, -0.378, 192.0, 0.0, 0.0, 0.0, 0.0, 0.0, 0.0, 0.0, 0.0, 0.0, 1.677182204360603E9, 0.0, 2023-02-23 11:56:44.360
232.0, 16688.371203943636, 16730.861870153174, 0.0, 0.0, 0.0, 0.0, 0.0, 0.0, 0.674, 0.628, -0.378, 192.0, 0.0, 0.0, 0.0, 0.0, 0.0, 0.0, 0.0, 0.0, 0.0, 1.677182204368947E9, 0.0, 2023-02-23 11:56:44.368
233.0, 16680.704555595465, 16726.50327998439, 0.0, 0.0, 0.0, 0.0, 0.0, 0.0, 0.674, 0.628, -0.378, 192.0, 0.0, 0.0, 0.0, 0.0, 0.0, 0.0, 0.0, 0.0, 0.0, 1.677182204375111E9, 0.0, 2023-02-23 11:56:44.375
234.0, 16674.513122381344, 16717.40611999108, 0.0, 0.0, 0.0, 0.0, 0.0, 0.0, 0.674, 0.628, -0.378, 192.0, 0.0, 0.0, 0.0, 0.0, 0.0, 0.0, 0.0, 0.0, 0.0, 1.677182204375133E9, 0.0, 2023-02-23 11:56:44.375
235.0, 16669.01459324534, 16716.556753701778, 0.0, 0.0, 0.0, 0.0, 0.0, 0.0, 0.674, 0.636, -0.38, 192.0, 21.0, 16.0, 19.0, 224.0, 244.0, 32.0, 0.0, 0.0, 0.0, 1.677182204382221E9, 0.0, 2023-02-23 11:56:44.382
236.0, 16664.991279243386, 16716.869678124152, 0.0, 0.0, 0.0, 0.0, 0.0, 0.0, 0.674, 0.636, -0.38, 192.0, 0.0, 0.0, 0.0, 0.0, 0.0, 0.0, 0.0, 0.0, 0.0, 1.677182204382236E9, 0.0, 2023-02-23 11:56:44.382
237.0, 16673.931977025506, 16720.02127409235, 0.0, 0.0, 0.0, 0.0, 0.0, 0.0, 0.674, 0.636, -0.38, 192.0, 0.0, 0.0, 0.0, 0.0, 0.0, 0.0, 0.0, 0.0, 0.0, 1.677182204390247E9, 0.0, 2023-02-23 11:56:44.390
238.0, 16676.48007589341, 16721.652951437587, 0.0, 0.0, 0.0, 0.0, 0.0, 0.0, 0.674, 0.636, -0.38, 192.0, 0.0, 0.0, 0.0, 0.0, 0.0, 0.0, 0.0, 0.0, 0.0, 1.677182204390263E9, 0.0, 2023-02-23 11:56:44.390
239.0, 16682.135067240604, 16728.291419540816, 0.0, 0.0, 0.0, 0.0, 0.0, 0.0, 0.674, 0.636, -0.38, 192.0, 0.0, 0.0, 0.0, 0.0, 0.0, 0.0, 0.0, 0.0, 0.0, 1.677182204398074E9, 0.0, 2023-02-23 11:56:44.398
240.0, 16681.978605029417, 16736.293344055815, 0.0, 0.0, 0.0, 0.0, 0.0, 0.0, 0.674, 0.636, -0.38, 192.0, 0.0, 0.0, 0.0, 0.0, 0.0, 0.0, 0.0, 0.0, 0.0, 1.677182204398087E9, 0.0, 2023-02-23 11:56:44.398
241.0, 16680.19046547299, 16734.996942877406, 0.0, 0.0, 0.0, 0.0, 0.0, 0.0, 0.674, 0.636, -0.38, 192.0, 0.0, 0.0, 0.0, 0.0, 0.0, 0.0, 0.0, 0.0, 0.0, 1.677182204404751E9, 0.0, 2023-02-23 11:56:44.404
242.0, 16682.69386085199, 16726.391521262114, 0.0, 0.0, 0.0, 0.0, 0.0, 0.0, 0.674, 0.636, -0.38, 192.0, 0.0, 0.0, 0.0, 0.0, 0.0, 0.0, 0.0, 0.0, 0.0, 1.677182204404769E9, 0.0, 2023-02-23 11:56:44.404
243.0, 16682.24682596288, 16720.98239910393, 0.0, 0.0, 0.0, 0.0, 0.0, 0.0, 0.674, 0.636, -0.38, 192.0, 0.0, 0.0, 0.0, 0.0, 0.0, 0.0, 0.0, 0.0, 0.0, 1.677182204412814E9, 0.0, 2023-02-23 11:56:44.412
244.0, 16681.464514906947, 16722.636428193622, 0.0, 0.0, 0.0, 0.0, 0.0, 0.0, 0.674, 0.636, -0.38, 192.0, 0.0, 0.0, 0.0, 0.0, 0.0, 0.0, 0.0, 0.0, 0.0, 1.677182204412834E9, 0.0, 2023-02-23 11:56:44.412
245.0, 16683.766744585842, 16729.341951530212, 0.0, 0.0, 0.0, 0.0, 0.0, 0.0, 0.674, 0.636, -0.39, 192.0, 21.0, 16.0, 19.0, 224.0, 243.0, 208.0, 0.0, 0.0, 0.0, 1.677182204420763E9, 0.0, 2023-02-23 11:56:44.420
246.0, 16677.284738693805, 16728.179660818536, 0.0, 0.0, 0.0, 0.0, 0.0, 0.0, 0.674, 0.636, -0.39, 192.0, 0.0, 0.0, 0.0, 0.0, 0.0, 0.0, 0.0, 0.0, 0.0, 1.67718220442078E9, 0.0, 2023-02-23 11:56:44.420
247.0, 16672.948500269475, 16715.93090485703, 0.0, 0.0, 0.0, 0.0, 0.0, 0.0, 0.674, 0.636, -0.39, 192.0, 0.0, 0.0, 0.0, 0.0, 0.0, 0.0, 0.0, 0.0, 0.0, 1.677182204426696E9, 0.0, 2023-02-23 11:56:44.426
248.0, 16671.674450835522, 16715.41681473456, 0.0, 0.0, 0.0, 0.0, 0.0, 0.0, 0.674, 0.636, -0.39, 192.0, 0.0, 0.0, 0.0, 0.0, 0.0, 0.0, 0.0, 0.0, 0.0, 1.677182204426714E9, 0.0, 2023-02-23 11:56:44.426
249.0, 16674.557825870255, 16731.510070742377, 0.0, 0.0, 0.0, 0.0, 0.0, 0.0, 0.674, 0.636, -0.39, 192.0, 0.0, 0.0, 0.0, 0.0, 0.0, 0.0, 0.0, 0.0, 0.0, 1.677182204435877E9, 0.0, 2023-02-23 11:56:44.435
250.0, 16672.702631080465, 16729.78898641932, 0.0, 0.0, 0.0, 0.0, 0.0, 0.0, 0.674, 0.636, -0.39, 192.0, 0.0, 0.0, 0.0, 0.0, 0.0, 0.0, 0.0, 0.0, 0.0, 1.67718220444244E9, 0.0, 2023-02-23 11:56:44.442
251.0, 16672.81438980274, 16717.987265346917, 0.0, 0.0, 0.0, 0.0, 0.0, 0.0, 0.674, 0.636, -0.39, 192.0, 0.0, 0.0, 0.0, 0.0, 0.0, 0.0, 0.0, 0.0, 0.0, 1.677182204442466E9, 0.0, 2023-02-23 11:56:44.442
252.0, 16676.16715147104, 16724.893954383606, 0.0, 0.0, 0.0, 0.0, 0.0, 0.0, 0.674, 0.636, -0.39, 192.0, 0.0, 0.0, 0.0, 0.0, 0.0, 0.0, 0.0, 0.0, 0.0, 1.677182204450474E9, 0.0, 2023-02-23 11:56:44.450
253.0, 16681.30805269576, 16732.493547498412, 0.0, 0.0, 0.0, 0.0, 0.0, 0.0, 0.674, 0.636, -0.39, 192.0, 0.0, 0.0, 0.0, 0.0, 0.0, 0.0, 0.0, 0.0, 0.0, 1.677182204450486E9, 0.0, 2023-02-23 11:56:44.450
254.0, 16681.19629397348, 16736.53921324482, 0.0, 0.0, 0.0, 0.0, 0.0, 0.0, 0.674, 0.636, -0.39, 192.0, 0.0, 0.0, 0.0, 0.0, 0.0, 0.0, 0.0, 0.0, 0.0, 1.677182204457159E9, 0.0, 2023-02-23 11:56:44.457
255.0, 16680.615148617646, 16730.79481491981, 0.0, 0.0, 0.0, 0.0, 0.0, 0.0, 0.672, 0.626, -0.38, 192.0, 21.0, 0.0, 19.0, 144.0, 244.0, 32.0, 0.0, 0.0, 0.0, 1.677182204457177E9, 0.0, 2023-02-23 11:56:44.457
0.0, 16673.909625281052, 16721.720006670952, 0.0, 0.0, 0.0, 0.0, 0.0, 0.0, 0.672, 0.626, -0.38, 192.0, 0.0, 0.0, 0.0, 0.0, 0.0, 0.0, 0.0, 0.0, 0.0, 1.677182204465131E9, 0.0, 2023-02-23 11:56:44.465
1.0, 16677.39649741608, 16723.17287006055, 0.0, 0.0, 0.0, 0.0, 0.0, 0.0, 0.672, 0.626, -0.38, 192.0, 0.0, 0.0, 0.0, 0.0, 0.0, 0.0, 0.0, 0.0, 0.0, 1.67718220446515E9, 0.0, 2023-02-23 11:56:44.465
2.0, 16673.64140434759, 16720.69182642601, 0.0, 0.0, 0.0, 0.0, 0.0, 0.0, 0.672, 0.626, -0.38, 192.0, 0.0, 0.0, 0.0, 0.0, 0.0, 0.0, 0.0, 0.0, 0.0, 1.677182204473156E9, 0.0, 2023-02-23 11:56:44.473
3.0, 16665.6841833215, 16719.350721758692, 0.0, 0.0, 0.0, 0.0, 0.0, 0.0, 0.672, 0.626, -0.38, 192.0, 0.0, 0.0, 0.0, 0.0, 0.0, 0.0, 0.0, 0.0, 0.0, 1.677182204473171E9, 0.0, 2023-02-23 11:56:44.473
4.0, 16676.16715147104, 16731.26420155337, 0.0, 0.0, 0.0, 0.0, 0.0, 0.0, 0.672, 0.626, -0.38, 192.0, 0.0, 0.0, 0.0, 0.0, 0.0, 0.0, 0.0, 0.0, 0.0, 1.677182204480185E9, 0.0, 2023-02-23 11:56:44.480
5.0, 16689.801715588776, 16740.78604469133, 0.0, 0.0, 0.0, 0.0, 0.0, 0.0, 0.672, 0.626, -0.38, 192.0, 0.0, 0.0, 0.0, 0.0, 0.0, 0.0, 0.0, 0.0, 0.0, 1.677182204480196E9, 0.0, 2023-02-23 11:56:44.480
6.0, 16676.658889849055, 16722.72583517144, 0.0, 0.0, 0.0, 0.0, 0.0, 0.0, 0.672, 0.626, -0.38, 192.0, 0.0, 0.0, 0.0, 0.0, 0.0, 0.0, 0.0, 0.0, 0.0, 1.677182204487659E9, 0.0, 2023-02-23 11:56:44.487
7.0, 16660.811503030243, 16710.49943095439, 0.0, 0.0, 0.0, 0.0, 0.0, 0.0, 0.672, 0.626, -0.38, 192.0, 0.0, 0.0, 0.0, 0.0, 0.0, 0.0, 0.0, 0.0, 0.0, 1.677182204487673E9, 0.0, 2023-02-23 11:56:44.487
8.0, 16655.648250061065, 16707.101965797185, 0.0, 0.0, 0.0, 0.0, 0.0, 0.0, 0.668, 0.624, -0.38, 192.0, 20.0, 224.0, 19.0, 128.0, 244.0, 32.0, 0.0, 0.0, 0.0, 1.677182204494638E9, 0.0, 2023-02-23 11:56:44.494
9.0, 16666.332383910703, 16713.092233311207, 0.0, 0.0, 0.0, 0.0, 0.0, 0.0, 0.668, 0.624, -0.38, 192.0, 0.0, 0.0, 0.0, 0.0, 0.0, 0.0, 0.0, 0.0, 0.0, 1.677182204502732E9, 0.0, 2023-02-23 11:56:44.502
10.0, 16670.601567101665, 16719.171907803047, 0.0, 0.0, 0.0, 0.0, 0.0, 0.0, 0.668, 0.624, -0.38, 192.0, 0.0, 0.0, 0.0, 0.0, 0.0, 0.0, 0.0, 0.0, 0.0, 1.677182204502759E9, 0.0, 2023-02-23 11:56:44.502
11.0, 16666.980584499906, 16713.047529822295, 0.0, 0.0, 0.0, 0.0, 0.0, 0.0, 0.668, 0.624, -0.38, 192.0, 0.0, 0.0, 0.0, 0.0, 0.0, 0.0, 0.0, 0.0, 0.0, 1.677182204509823E9, 0.0, 2023-02-23 11:56:44.509
12.0, 16668.142875211583, 16712.51108795537, 0.0, 0.0, 0.0, 0.0, 0.0, 0.0, 0.668, 0.624, -0.38, 192.0, 0.0, 0.0, 0.0, 0.0, 0.0, 0.0, 0.0, 0.0, 0.0, 1.677182204509841E9, 0.0, 2023-02-23 11:56:44.509
13.0, 16674.5354741258, 16713.31575075576, 0.0, 0.0, 0.0, 0.0, 0.0, 0.0, 0.668, 0.624, -0.38, 192.0, 0.0, 0.0, 0.0, 0.0, 0.0, 0.0, 0.0, 0.0, 0.0, 1.677182204517398E9, 0.0, 2023-02-23 11:56:44.517
14.0, 16687.857113821163, 16721.429433993035, 0.0, 0.0, 0.0, 0.0, 0.0, 0.0, 0.668, 0.624, -0.38, 192.0, 0.0, 0.0, 0.0, 0.0, 0.0, 0.0, 0.0, 0.0, 0.0, 1.67718220451745E9, 0.0, 2023-02-23 11:56:44.517
15.0, 16677.038869504795, 16721.96587585996, 0.0, 0.0, 0.0, 0.0, 0.0, 0.0, 0.668, 0.624, -0.38, 192.0, 0.0, 0.0, 0.0, 0.0, 0.0, 0.0, 0.0, 0.0, 0.0, 1.677182204525337E9, 0.0, 2023-02-23 11:56:44.525
16.0, 16673.350831669668, 16720.624771192644, 0.0, 0.0, 0.0, 0.0, 0.0, 0.0, 0.668, 0.624, -0.38, 192.0, 0.0, 0.0, 0.0, 0.0, 0.0, 0.0, 0.0, 0.0, 0.0, 1.677182204525366E9, 0.0, 2023-02-23 11:56:44.525
17.0, 16677.463552649446, 16726.436224751025, 0.0, 0.0, 0.0, 0.0, 0.0, 0.0, 0.668, 0.624, -0.38, 192.0, 0.0, 0.0, 0.0, 0.0, 0.0, 0.0, 0.0, 0.0, 0.0, 1.677182204533414E9, 0.0, 2023-02-23 11:56:44.533
18.0, 16674.334308425703, 16721.6976549265, 0.0, 0.0, 0.0, 0.0, 0.0, 0.0, 0.676, 0.632, -0.378, 192.0, 21.0, 32.0, 19.0, 192.0, 244.0, 48.0, 0.0, 0.0, 0.0, 1.677182204533426E9, 0.0, 2023-02-23 11:56:44.533
19.0, 16672.166189213538, 16712.712253655463, 0.0, 0.0, 0.0, 0.0, 0.0, 0.0, 0.676, 0.632, -0.378, 192.0, 0.0, 0.0, 0.0, 0.0, 0.0, 0.0, 0.0, 0.0, 0.0, 1.677182204540037E9, 0.0, 2023-02-23 11:56:44.540
20.0, 16678.3352706832, 16705.514991940858, 0.0, 0.0, 0.0, 0.0, 0.0, 0.0, 0.676, 0.632, -0.378, 192.0, 0.0, 0.0, 0.0, 0.0, 0.0, 0.0, 0.0, 0.0, 0.0, 1.677182204540046E9, 0.0, 2023-02-23 11:56:44.540
21.0, 16677.35179392717, 16707.034910563816, 0.0, 0.0, 0.0, 0.0, 0.0, 0.0, 0.676, 0.632, -0.378, 192.0, 0.0, 0.0, 0.0, 0.0, 0.0, 0.0, 0.0, 0.0, 0.0, 1.677182204547943E9, 0.0, 2023-02-23 11:56:44.547
22.0, 16673.596700858678, 16714.634503678622, 0.0, 0.0, 0.0, 0.0, 0.0, 0.0, 0.676, 0.632, -0.378, 192.0, 0.0, 0.0, 0.0, 0.0, 0.0, 0.0, 0.0, 0.0, 0.0, 1.677182204547965E9, 0.0, 2023-02-23 11:56:44.547
23.0, 16665.170093199027, 16717.048492079794, 0.0, 0.0, 0.0, 0.0, 0.0, 0.0, 0.676, 0.632, -0.378, 192.0, 0.0, 0.0, 0.0, 0.0, 0.0, 0.0, 0.0, 0.0, 0.0, 1.677182204554874E9, 0.0, 2023-02-23 11:56:44.554
24.0, 16660.87855826361, 16706.945503585997, 0.0, 0.0, 0.0, 0.0, 0.0, 0.0, 0.676, 0.632, -0.378, 192.0, 0.0, 0.0, 0.0, 0.0, 0.0, 0.0, 0.0, 0.0, 0.0, 1.677182204563005E9, 0.0, 2023-02-23 11:56:44.563
25.0, 16670.690974079487, 16709.292436753803, 0.0, 0.0, 0.0, 0.0, 0.0, 0.0, 0.676, 0.632, -0.378, 192.0, 0.0, 0.0, 0.0, 0.0, 0.0, 0.0, 0.0, 0.0, 0.0, 1.677182204563021E9, 0.0, 2023-02-23 11:56:44.563
26.0, 16676.77064857133, 16728.805509663285, 0.0, 0.0, 0.0, 0.0, 0.0, 0.0, 0.676, 0.632, -0.378, 192.0, 0.0, 0.0, 0.0, 0.0, 0.0, 0.0, 0.0, 0.0, 0.0, 1.677182204569626E9, 0.0, 2023-02-23 11:56:44.569
27.0, 16677.06122124925, 16733.521727743355, 0.0, 0.0, 0.0, 0.0, 0.0, 0.0, 0.676, 0.632, -0.378, 192.0, 0.0, 0.0, 0.0, 0.0, 0.0, 0.0, 0.0, 0.0, 0.0, 1.677182204569637E9, 0.0, 2023-02-23 11:56:44.569
28.0, 16669.126351967618, 16726.771500917854, 0.0, 0.0, 0.0, 0.0, 0.0, 0.0, 0.674, 0.628, -0.38, 192.0, 21.0, 16.0, 19.0, 160.0, 244.0, 32.0, 0.0, 0.0, 0.0, 1.677182204577653E9, 0.0, 2023-02-23 11:56:44.577
29.0, 16667.762895555843, 16723.038759593815, 0.0, 0.0, 0.0, 0.0, 0.0, 0.0, 0.674, 0.628, -0.38, 192.0, 0.0, 0.0, 0.0, 0.0, 0.0, 0.0, 0.0, 0.0, 0.0, 1.677182204577669E9, 0.0, 2023-02-23 11:56:44.577
30.0, 16667.941709511484, 16730.571297475257, 0.0, 0.0, 0.0, 0.0, 0.0, 0.0, 0.674, 0.628, -0.38, 192.0, 0.0, 0.0, 0.0, 0.0, 0.0, 0.0, 0.0, 0.0, 0.0, 1.677182204585548E9, 0.0, 2023-02-23 11:56:44.585
31.0, 16675.67541309302, 16728.13495732963, 0.0, 0.0, 0.0, 0.0, 0.0, 0.0, 0.674, 0.628, -0.38, 192.0, 0.0, 0.0, 0.0, 0.0, 0.0, 0.0, 0.0, 0.0, 0.0, 1.677182204585605E9, 0.0, 2023-02-23 11:56:44.585
32.0, 16676.994166015884, 16716.6461606796, 0.0, 0.0, 0.0, 0.0, 0.0, 0.0, 0.674, 0.628, -0.38, 192.0, 0.0, 0.0, 0.0, 0.0, 0.0, 0.0, 0.0, 0.0, 0.0, 1.677182204593591E9, 0.0, 2023-02-23 11:56:44.593
33.0, 16678.223511960925, 16719.55188745879, 0.0, 0.0, 0.0, 0.0, 0.0, 0.0, 0.674, 0.628, -0.38, 192.0, 0.0, 0.0, 0.0, 0.0, 0.0, 0.0, 0.0, 0.0, 0.0, 1.677182204593612E9, 0.0, 2023-02-23 11:56:44.593
34.0, 16673.037907247293, 16726.011541606375, 0.0, 0.0, 0.0, 0.0, 0.0, 0.0, 0.674, 0.628, -0.38, 192.0, 0.0, 0.0, 0.0, 0.0, 0.0, 0.0, 0.0, 0.0, 0.0, 1.677182204600174E9, 0.0, 2023-02-23 11:56:44.600
35.0, 16672.859093291652, 16723.97753286094, 0.0, 0.0, 0.0, 0.0, 0.0, 0.0, 0.674, 0.628, -0.38, 192.0, 0.0, 0.0, 0.0, 0.0, 0.0, 0.0, 0.0, 0.0, 0.0, 1.677182204600189E9, 0.0, 2023-02-23 11:56:44.600
36.0, 16671.741506068887, 16721.07180608175, 0.0, 0.0, 0.0, 0.0, 0.0, 0.0, 0.674, 0.628, -0.38, 192.0, 0.0, 0.0, 0.0, 0.0, 0.0, 0.0, 0.0, 0.0, 0.0, 1.67718220460831E9, 0.0, 2023-02-23 11:56:44.608
37.0, 16675.20602645946, 16718.903686869584, 0.0, 0.0, 0.0, 0.0, 0.0, 0.0, 0.674, 0.628, -0.38, 192.0, 0.0, 0.0, 0.0, 0.0, 0.0, 0.0, 0.0, 0.0, 0.0, 1.677182204608341E9, 0.0, 2023-02-23 11:56:44.608
38.0, 16670.065125234738, 16714.36628274516, 0.0, 0.0, 0.0, 0.0, 0.0, 0.0, 0.676, 0.63, -0.378, 192.0, 21.0, 32.0, 19.0, 176.0, 244.0, 48.0, 0.0, 0.0, 0.0, 1.677182204615298E9, 0.0, 2023-02-23 11:56:44.615
39.0, 16672.926148525017, 16718.769576402854, 0.0, 0.0, 0.0, 0.0, 0.0, 0.0, 0.676, 0.63, -0.378, 192.0, 0.0, 0.0, 0.0, 0.0, 0.0, 0.0, 0.0, 0.0, 0.0, 1.677182204621897E9, 0.0, 2023-02-23 11:56:44.621
40.0, 16667.159398455547, 16718.858983380673, 0.0, 0.0, 0.0, 0.0, 0.0, 0.0, 0.676, 0.63, -0.378, 192.0, 0.0, 0.0, 0.0, 0.0, 0.0, 0.0, 0.0, 0.0, 0.0, 1.67718220462191E9, 0.0, 2023-02-23 11:56:44.621
41.0, 16672.076782235716, 16724.69278868351, 0.0, 0.0, 0.0, 0.0, 0.0, 0.0, 0.676, 0.63, -0.378, 192.0, 0.0, 0.0, 0.0, 0.0, 0.0, 0.0, 0.0, 0.0, 0.0, 1.677182204629893E9, 0.0, 2023-02-23 11:56:44.629
42.0, 16676.815352060243, 16731.107739342184, 0.0, 0.0, 0.0, 0.0, 0.0, 0.0, 0.676, 0.63, -0.378, 192.0, 0.0, 0.0, 0.0, 0.0, 0.0, 0.0, 0.0, 0.0, 0.0, 1.677182204629907E9, 0.0, 2023-02-23 11:56:44.629
43.0, 16680.972776528928, 16736.226288822447, 0.0, 0.0, 0.0, 0.0, 0.0, 0.0, 0.676, 0.63, -0.378, 192.0, 0.0, 0.0, 0.0, 0.0, 0.0, 0.0, 0.0, 0.0, 0.0, 1.677182204637803E9, 0.0, 2023-02-23 11:56:44.637
44.0, 16674.49077063689, 16729.4984137414, 0.0, 0.0, 0.0, 0.0, 0.0, 0.0, 0.676, 0.63, -0.378, 192.0, 0.0, 0.0, 0.0, 0.0, 0.0, 0.0, 0.0, 0.0, 0.0, 1.677182204637824E9, 0.0, 2023-02-23 11:56:44.637
45.0, 16673.283776436303, 16721.764710159863, 0.0, 0.0, 0.0, 0.0, 0.0, 0.0, 0.676, 0.63, -0.378, 192.0, 0.0, 0.0, 0.0, 0.0, 0.0, 0.0, 0.0, 0.0, 0.0, 1.677182204644978E9, 0.0, 2023-02-23 11:56:44.644
46.0, 16670.467456634935, 16723.21757354946, 0.0, 0.0, 0.0, 0.0, 0.0, 0.0, 0.676, 0.63, -0.378, 192.0, 0.0, 0.0, 0.0, 0.0, 0.0, 0.0, 0.0, 0.0, 0.0, 1.677182204644996E9, 0.0, 2023-02-23 11:56:44.644
47.0, 16673.4849421364, 16727.822032907254, 0.0, 0.0, 0.0, 0.0, 0.0, 0.0, 0.676, 0.63, -0.378, 192.0, 0.0, 0.0, 0.0, 0.0, 0.0, 0.0, 0.0, 0.0, 0.0, 1.677182204652506E9, 0.0, 2023-02-23 11:56:44.652
48.0, 16671.20506420196, 16717.16025080207, 0.0, 0.0, 0.0, 0.0, 0.0, 0.0, 0.676, 0.634, -0.378, 192.0, 21.0, 32.0, 19.0, 208.0, 244.0, 48.0, 0.0, 0.0, 0.0, 1.677182204652554E9, 0.0, 2023-02-23 11:56:44.652
49.0, 16665.706535065954, 16710.49943095439, 0.0, 0.0, 0.0, 0.0, 0.0, 0.0, 0.676, 0.634, -0.378, 192.0, 0.0, 0.0, 0.0, 0.0, 0.0, 0.0, 0.0, 0.0, 0.0, 1.67718220466047E9, 0.0, 2023-02-23 11:56:44.660
50.0, 16663.40430538706, 16713.807489133775, 0.0, 0.0, 0.0, 0.0, 0.0, 0.0, 0.676, 0.634, -0.378, 192.0, 0.0, 0.0, 0.0, 0.0, 0.0, 0.0, 0.0, 0.0, 0.0, 1.677182204660488E9, 0.0, 2023-02-23 11:56:44.660
51.0, 16665.34890715467, 16715.84149787921, 0.0, 0.0, 0.0, 0.0, 0.0, 0.0, 0.676, 0.634, -0.378, 192.0, 0.0, 0.0, 0.0, 0.0, 0.0, 0.0, 0.0, 0.0, 0.0, 1.677182204668478E9, 0.0, 2023-02-23 11:56:44.668
52.0, 16675.384840415103, 16727.48675674042, 0.0, 0.0, 0.0, 0.0, 0.0, 0.0, 0.676, 0.634, -0.378, 192.0, 0.0, 0.0, 0.0, 0.0, 0.0, 0.0, 0.0, 0.0, 0.0, 1.677182204668492E9, 0.0, 2023-02-23 11:56:44.668
53.0, 16679.20698871696, 16728.336123029723, 0.0, 0.0, 0.0, 0.0, 0.0, 0.0, 0.676, 0.634, -0.378, 192.0, 0.0, 0.0, 0.0, 0.0, 0.0, 0.0, 0.0, 0.0, 0.0, 1.677182204674639E9, 0.0, 2023-02-23 11:56:44.674
54.0, 16678.938767783497, 16724.379864261136, 0.0, 0.0, 0.0, 0.0, 0.0, 0.0, 0.676, 0.634, -0.378, 192.0, 0.0, 0.0, 0.0, 0.0, 0.0, 0.0, 0.0, 0.0, 0.0, 1.677182204674659E9, 0.0, 2023-02-23 11:56:44.674
55.0, 16676.54713112678, 16729.07373059675, 0.0, 0.0, 0.0, 0.0, 0.0, 0.0, 0.676, 0.634, -0.378, 192.0, 0.0, 0.0, 0.0, 0.0, 0.0, 0.0, 0.0, 0.0, 0.0, 1.677182204682176E9, 0.0, 2023-02-23 11:56:44.682
56.0, 16671.003898501862, 16726.793852662307, 0.0, 0.0, 0.0, 0.0, 0.0, 0.0, 0.676, 0.634, -0.378, 192.0, 0.0, 0.0, 0.0, 0.0, 0.0, 0.0, 0.0, 0.0, 0.0, 1.677182204690115E9, 0.0, 2023-02-23 11:56:44.690
57.0, 16673.127314225116, 16726.88325964013, 0.0, 0.0, 0.0, 0.0, 0.0, 0.0, 0.676, 0.634, -0.378, 192.0, 0.0, 0.0, 0.0, 0.0, 0.0, 0.0, 0.0, 0.0, 0.0, 1.677182204690136E9, 0.0, 2023-02-23 11:56:44.690
58.0, 16673.6861078365, 16730.325428286247, 0.0, 0.0, 0.0, 0.0, 0.0, 0.0, 0.672, 0.632, -0.376, 192.0, 21.0, 0.0, 19.0, 192.0, 244.0, 64.0, 0.0, 0.0, 0.0, 1.677182204698217E9, 0.0, 2023-02-23 11:56:44.698
59.0, 16676.837703804697, 16737.83561442323, 0.0, 0.0, 0.0, 0.0, 0.0, 0.0, 0.672, 0.632, -0.376, 192.0, 0.0, 0.0, 0.0, 0.0, 0.0, 0.0, 0.0, 0.0, 0.0, 1.677182204698241E9, 0.0, 2023-02-23 11:56:44.698
60.0, 16673.842570047687, 16733.477024254444, 0.0, 0.0, 0.0, 0.0, 0.0, 0.0, 0.672, 0.632, -0.376, 192.0, 0.0, 0.0, 0.0, 0.0, 0.0, 0.0, 0.0, 0.0, 0.0, 1.677182204704791E9, 0.0, 2023-02-23 11:56:44.704
61.0, 16682.67150910753, 16727.710274184978, 0.0, 0.0, 0.0, 0.0, 0.0, 0.0, 0.672, 0.632, -0.376, 192.0, 0.0, 0.0, 0.0, 0.0, 0.0, 0.0, 0.0, 0.0, 0.0, 1.677182204704803E9, 0.0, 2023-02-23 11:56:44.704
62.0, 16680.570445128735, 16723.619904949654, 0.0, 0.0, 0.0, 0.0, 0.0, 0.0, 0.672, 0.632, -0.376, 192.0, 0.0, 0.0, 0.0, 0.0, 0.0, 0.0, 0.0, 0.0, 0.0, 1.677182204712856E9, 0.0, 2023-02-23 11:56:44.712
63.0, 16674.580177614713, 16724.4469194945, 0.0, 0.0, 0.0, 0.0, 0.0, 0.0, 0.672, 0.632, -0.376, 192.0, 0.0, 0.0, 0.0, 0.0, 0.0, 0.0, 0.0, 0.0, 0.0, 1.677182204712865E9, 0.0, 2023-02-23 11:56:44.712
64.0, 16672.88144503611, 16722.72583517144, 0.0, 0.0, 0.0, 0.0, 0.0, 0.0, 0.672, 0.632, -0.376, 192.0, 0.0, 0.0, 0.0, 0.0, 0.0, 0.0, 0.0, 0.0, 0.0, 1.67718220472078E9, 0.0, 2023-02-23 11:56:44.720
65.0, 16665.63947983259, 16723.150518316095, 0.0, 0.0, 0.0, 0.0, 0.0, 0.0, 0.672, 0.632, -0.376, 192.0, 0.0, 0.0, 0.0, 0.0, 0.0, 0.0, 0.0, 0.0, 0.0, 1.677182204720824E9, 0.0, 2023-02-23 11:56:44.720
66.0, 16664.477189120913, 16726.100948584193, 0.0, 0.0, 0.0, 0.0, 0.0, 0.0, 0.672, 0.632, -0.376, 192.0, 0.0, 0.0, 0.0, 0.0, 0.0, 0.0, 0.0, 0.0, 0.0, 1.677182204727885E9, 0.0, 2023-02-23 11:56:44.727
67.0, 16668.612261845145, 16722.36820726016, 0.0, 0.0, 0.0, 0.0, 0.0, 0.0, 0.672, 0.632, -0.376, 192.0, 0.0, 0.0, 0.0, 0.0, 0.0, 0.0, 0.0, 0.0, 0.0, 1.677182204727907E9, 0.0, 2023-02-23 11:56:44.727
68.0, 16678.737602083398, 16727.777329418343, 0.0, 0.0, 0.0, 0.0, 0.0, 0.0, 0.672, 0.636, -0.374, 192.0, 21.0, 0.0, 19.0, 224.0, 244.0, 80.0, 0.0, 0.0, 0.0, 1.677182204735459E9, 0.0, 2023-02-23 11:56:44.735
69.0, 16675.74246832639, 16729.051378852295, 0.0, 0.0, 0.0, 0.0, 0.0, 0.0, 0.672, 0.636, -0.374, 192.0, 0.0, 0.0, 0.0, 0.0, 0.0, 0.0, 0.0, 0.0, 0.0, 1.677182204735479E9, 0.0, 2023-02-23 11:56:44.735
70.0, 16674.177846214516, 16728.514936985368, 0.0, 0.0, 0.0, 0.0, 0.0, 0.0, 0.672, 0.636, -0.374, 192.0, 0.0, 0.0, 0.0, 0.0, 0.0, 0.0, 0.0, 0.0, 0.0, 1.677182204742476E9, 0.0, 2023-02-23 11:56:44.742
71.0, 16679.788134072798, 16729.699579441498, 0.0, 0.0, 0.0, 0.0, 0.0, 0.0, 0.672, 0.636, -0.374, 192.0, 0.0, 0.0, 0.0, 0.0, 0.0, 0.0, 0.0, 0.0, 0.0, 1.677182204750496E9, 0.0, 2023-02-23 11:56:44.750
72.0, 16681.352756184668, 16725.45274799499, 0.0, 0.0, 0.0, 0.0, 0.0, 0.0, 0.672, 0.636, -0.374, 192.0, 0.0, 0.0, 0.0, 0.0, 0.0, 0.0, 0.0, 0.0, 0.0, 1.67718220475051E9, 0.0, 2023-02-23 11:56:44.750
73.0, 16671.24976769087, 16724.82689915024, 0.0, 0.0, 0.0, 0.0, 0.0, 0.0, 0.672, 0.636, -0.374, 192.0, 0.0, 0.0, 0.0, 0.0, 0.0, 0.0, 0.0, 0.0, 0.0, 1.677182204756985E9, 0.0, 2023-02-23 11:56:44.756
74.0, 16666.91352926654, 16721.07180608175, 0.0, 0.0, 0.0, 0.0, 0.0, 0.0, 0.672, 0.636, -0.374, 192.0, 0.0, 0.0, 0.0, 0.0, 0.0, 0.0, 0.0, 0.0, 0.0, 1.677182204756993E9, 0.0, 2023-02-23 11:56:44.756
75.0, 16679.117581739138, 16725.050416594793, 0.0, 0.0, 0.0, 0.0, 0.0, 0.0, 0.672, 0.636, -0.374, 192.0, 0.0, 0.0, 0.0, 0.0, 0.0, 0.0, 0.0, 0.0, 0.0, 1.677182204765161E9, 0.0, 2023-02-23 11:56:44.765
76.0, 16688.997052788385, 16734.63931496612, 0.0, 0.0, 0.0, 0.0, 0.0, 0.0, 0.672, 0.636, -0.374, 192.0, 0.0, 0.0, 0.0, 0.0, 0.0, 0.0, 0.0, 0.0, 0.0, 1.677182204765177E9, 0.0, 2023-02-23 11:56:44.765
77.0, 16681.665680607042, 16733.20880332098, 0.0, 0.0, 0.0, 0.0, 0.0, 0.0, 0.672, 0.636, -0.374, 192.0, 0.0, 0.0, 0.0, 0.0, 0.0, 0.0, 0.0, 0.0, 0.0, 1.677182204773225E9, 0.0, 2023-02-23 11:56:44.773
78.0, 16677.82118056073, 16730.034855608326, 0.0, 0.0, 0.0, 0.0, 0.0, 0.0, 0.67, 0.628, -0.372, 192.0, 20.0, 240.0, 19.0, 160.0, 244.0, 96.0, 0.0, 0.0, 0.0, 1.677182204773249E9, 0.0, 2023-02-23 11:56:44.773
79.0, 16677.508256138357, 16726.16800381756, 0.0, 0.0, 0.0, 0.0, 0.0, 0.0, 0.67, 0.628, -0.372, 192.0, 0.0, 0.0, 0.0, 0.0, 0.0, 0.0, 0.0, 0.0, 0.0, 1.677182204780081E9, 0.0, 2023-02-23 11:56:44.780
80.0, 16685.912512053554, 16729.386655019123, 0.0, 0.0, 0.0, 0.0, 0.0, 0.0, 0.67, 0.628, -0.372, 192.0, 0.0, 0.0, 0.0, 0.0, 0.0, 0.0, 0.0, 0.0, 0.0, 1.677182204780112E9, 0.0, 2023-02-23 11:56:44.780
81.0, 16682.760916085354, 16726.749149173396, 0.0, 0.0, 0.0, 0.0, 0.0, 0.0, 0.67, 0.628, -0.372, 192.0, 0.0, 0.0, 0.0, 0.0, 0.0, 0.0, 0.0, 0.0, 0.0, 1.677182204787744E9, 0.0, 2023-02-23 11:56:44.787
82.0, 16670.668622335033, 16725.20687880598, 0.0, 0.0, 0.0, 0.0, 0.0, 0.0, 0.67, 0.628, -0.372, 192.0, 0.0, 0.0, 0.0, 0.0, 0.0, 0.0, 0.0, 0.0, 0.0, 1.677182204787779E9, 0.0, 2023-02-23 11:56:44.787
83.0, 16668.50050312287, 16728.91726838556, 0.0, 0.0, 0.0, 0.0, 0.0, 0.0, 0.67, 0.628, -0.372, 192.0, 0.0, 0.0, 0.0, 0.0, 0.0, 0.0, 0.0, 0.0, 0.0, 1.677182204796199E9, 0.0, 2023-02-23 11:56:44.796
84.0, 16675.20602645946, 16730.16896607506, 0.0, 0.0, 0.0, 0.0, 0.0, 0.0, 0.67, 0.628, -0.372, 192.0, 0.0, 0.0, 0.0, 0.0, 0.0, 0.0, 0.0, 0.0, 0.0, 1.677182204796214E9, 0.0, 2023-02-23 11:56:44.796
85.0, 16688.795887088287, 16734.035817865828, 0.0, 0.0, 0.0, 0.0, 0.0, 0.0, 0.67, 0.628, -0.372, 192.0, 0.0, 0.0, 0.0, 0.0, 0.0, 0.0, 0.0, 0.0, 0.0, 1.677182204802696E9, 0.0, 2023-02-23 11:56:44.802
86.0, 16686.761878342855, 16732.962934131974, 0.0, 0.0, 0.0, 0.0, 0.0, 0.0, 0.67, 0.628, -0.372, 192.0, 0.0, 0.0, 0.0, 0.0, 0.0, 0.0, 0.0, 0.0, 0.0, 1.677182204809765E9, 0.0, 2023-02-23 11:56:44.809
87.0, 16682.470343407436, 16732.627657965142, 0.0, 0.0, 0.0, 0.0, 0.0, 0.0, 0.666, 0.632, -0.378, 192.0, 20.0, 208.0, 19.0, 192.0, 244.0, 48.0, 0.0, 0.0, 0.0, 1.677182204809783E9, 0.0, 2023-02-23 11:56:44.809
88.0, 16676.077744493217, 16736.896841156107, 0.0, 0.0, 0.0, 0.0, 0.0, 0.0, 0.666, 0.632, -0.378, 192.0, 0.0, 0.0, 0.0, 0.0, 0.0, 0.0, 0.0, 0.0, 0.0, 1.677182204818596E9, 0.0, 2023-02-23 11:56:44.818
89.0, 16688.974701043928, 16745.21169009348, 0.0, 0.0, 0.0, 0.0, 0.0, 0.0, 0.666, 0.632, -0.378, 192.0, 0.0, 0.0, 0.0, 0.0, 0.0, 0.0, 0.0, 0.0, 0.0, 1.677182204818617E9, 0.0, 2023-02-23 11:56:44.818
90.0, 16691.835724334207, 16732.31473354277, 0.0, 0.0, 0.0, 0.0, 0.0, 0.0, 0.666, 0.632, -0.378, 192.0, 0.0, 0.0, 0.0, 0.0, 0.0, 0.0, 0.0, 0.0, 0.0, 1.677182204825404E9, 0.0, 2023-02-23 11:56:44.825
91.0, 16681.755087584865, 16721.54119271531, 0.0, 0.0, 0.0, 0.0, 0.0, 0.0, 0.666, 0.632, -0.378, 192.0, 0.0, 0.0, 0.0, 0.0, 0.0, 0.0, 0.0, 0.0, 0.0, 1.677182204825422E9, 0.0, 2023-02-23 11:56:44.825
92.0, 16670.132180468107, 16723.84342239421, 0.0, 0.0, 0.0, 0.0, 0.0, 0.0, 0.666, 0.632, -0.378, 192.0, 0.0, 0.0, 0.0, 0.0, 0.0, 0.0, 0.0, 0.0, 0.0, 1.677182204833446E9, 0.0, 2023-02-23 11:56:44.833
93.0, 16668.791075800786, 16726.45857649548, 0.0, 0.0, 0.0, 0.0, 0.0, 0.0, 0.666, 0.632, -0.378, 192.0, 0.0, 0.0, 0.0, 0.0, 0.0, 0.0, 0.0, 0.0, 0.0, 1.677182204833458E9, 0.0, 2023-02-23 11:56:44.833
94.0, 16670.15453221256, 16726.16800381756, 0.0, 0.0, 0.0, 0.0, 0.0, 0.0, 0.666, 0.632, -0.378, 192.0, 0.0, 0.0, 0.0, 0.0, 0.0, 0.0, 0.0, 0.0, 0.0, 1.677182204840043E9, 0.0, 2023-02-23 11:56:44.840
95.0, 16670.020421745827, 16726.413873006568, 0.0, 0.0, 0.0, 0.0, 0.0, 0.0, 0.666, 0.632, -0.378, 192.0, 0.0, 0.0, 0.0, 0.0, 0.0, 0.0, 0.0, 0.0, 0.0, 1.677182204840064E9, 0.0, 2023-02-23 11:56:44.840
96.0, 16676.033041004306, 16728.514936985368, 0.0, 0.0, 0.0, 0.0, 0.0, 0.0, 0.666, 0.632, -0.378, 192.0, 0.0, 0.0, 0.0, 0.0, 0.0, 0.0, 0.0, 0.0, 0.0, 1.677182204848117E9, 0.0, 2023-02-23 11:56:44.848
97.0, 16681.755087584865, 16733.40996902108, 0.0, 0.0, 0.0, 0.0, 0.0, 0.0, 0.676, 0.63, -0.37, 192.0, 21.0, 32.0, 19.0, 176.0, 244.0, 112.0, 0.0, 0.0, 0.0, 1.677182204848139E9, 0.0, 2023-02-23 11:56:44.848
98.0, 16681.956253284963, 16733.87935565464, 0.0, 0.0, 0.0, 0.0, 0.0, 0.0, 0.676, 0.63, -0.37, 192.0, 0.0, 0.0, 0.0, 0.0, 0.0, 0.0, 0.0, 0.0, 0.0, 1.677182204855937E9, 0.0, 2023-02-23 11:56:44.855
99.0, 16679.564616628246, 16731.688884698022, 0.0, 0.0, 0.0, 0.0, 0.0, 0.0, 0.676, 0.63, -0.37, 192.0, 0.0, 0.0, 0.0, 0.0, 0.0, 0.0, 0.0, 0.0, 0.0, 1.677182204855956E9, 0.0, 2023-02-23 11:56:44.855
100.0, 16679.45285790597, 16734.952239388494, 0.0, 0.0, 0.0, 0.0, 0.0, 0.0, 0.676, 0.63, -0.37, 192.0, 0.0, 0.0, 0.0, 0.0, 0.0, 0.0, 0.0, 0.0, 0.0, 1.677182204863069E9, 0.0, 2023-02-23 11:56:44.863
101.0, 16688.773535343833, 16746.441036038523, 0.0, 0.0, 0.0, 0.0, 0.0, 0.0, 0.676, 0.63, -0.37, 192.0, 0.0, 0.0, 0.0, 0.0, 0.0, 0.0, 0.0, 0.0, 0.0, 1.67718220486972E9, 0.0, 2023-02-23 11:56:44.869
102.0, 16692.863904579153, 16742.93181215904, 0.0, 0.0, 0.0, 0.0, 0.0, 0.0, 0.676, 0.63, -0.37, 192.0, 0.0, 0.0, 0.0, 0.0, 0.0, 0.0, 0.0, 0.0, 0.0, 1.677182204869738E9, 0.0, 2023-02-23 11:56:44.869
103.0, 16693.57916040172, 16732.292381798314, 0.0, 0.0, 0.0, 0.0, 0.0, 0.0, 0.676, 0.63, -0.37, 192.0, 0.0, 0.0, 0.0, 0.0, 0.0, 0.0, 0.0, 0.0, 0.0, 1.677182204877608E9, 0.0, 2023-02-23 11:56:44.877
104.0, 16677.15062822707, 16722.099986326695, 0.0, 0.0, 0.0, 0.0, 0.0, 0.0, 0.676, 0.63, -0.37, 192.0, 0.0, 0.0, 0.0, 0.0, 0.0, 0.0, 0.0, 0.0, 0.0, 1.677182204877626E9, 0.0, 2023-02-23 11:56:44.877
105.0, 16670.48980837939, 16720.088329325717, 0.0, 0.0, 0.0, 0.0, 0.0, 0.0, 0.676, 0.63, -0.37, 192.0, 0.0, 0.0, 0.0, 0.0, 0.0, 0.0, 0.0, 0.0, 0.0, 1.677182204885681E9, 0.0, 2023-02-23 11:56:44.885
106.0, 16681.598625373677, 16731.867698653663, 0.0, 0.0, 0.0, 0.0, 0.0, 0.0, 0.676, 0.63, -0.37, 192.0, 0.0, 0.0, 0.0, 0.0, 0.0, 0.0, 0.0, 0.0, 0.0, 1.677182204885694E9, 0.0, 2023-02-23 11:56:44.885
107.0, 16680.570445128735, 16739.802567935298, 0.0, 0.0, 0.0, 0.0, 0.0, 0.0, 0.67, 0.626, -0.378, 192.0, 20.0, 240.0, 19.0, 144.0, 244.0, 48.0, 0.0, 0.0, 0.0, 1.677182204892708E9, 0.0, 2023-02-23 11:56:44.892
108.0, 16678.3352706832, 16740.07078886876, 0.0, 0.0, 0.0, 0.0, 0.0, 0.0, 0.67, 0.626, -0.378, 192.0, 0.0, 0.0, 0.0, 0.0, 0.0, 0.0, 0.0, 0.0, 0.0, 1.677182204892719E9, 0.0, 2023-02-23 11:56:44.892
109.0, 16681.06218350675, 16737.03095162284, 0.0, 0.0, 0.0, 0.0, 0.0, 0.0, 0.67, 0.626, -0.378, 192.0, 0.0, 0.0, 0.0, 0.0, 0.0, 0.0, 0.0, 0.0, 0.0, 1.677182204900281E9, 0.0, 2023-02-23 11:56:44.900
110.0, 16690.15934350006, 16742.7529982034, 0.0, 0.0, 0.0, 0.0, 0.0, 0.0, 0.67, 0.626, -0.378, 192.0, 0.0, 0.0, 0.0, 0.0, 0.0, 0.0, 0.0, 0.0, 0.0, 1.677182204900299E9, 0.0, 2023-02-23 11:56:44.900
111.0, 16687.16420974305, 16741.970687147463, 0.0, 0.0, 0.0, 0.0, 0.0, 0.0, 0.67, 0.626, -0.378, 192.0, 0.0, 0.0, 0.0, 0.0, 0.0, 0.0, 0.0, 0.0, 0.0, 1.677182204908215E9, 0.0, 2023-02-23 11:56:44.908
112.0, 16685.95721554246, 16735.93571614453, 0.0, 0.0, 0.0, 0.0, 0.0, 0.0, 0.67, 0.626, -0.378, 192.0, 0.0, 0.0, 0.0, 0.0, 0.0, 0.0, 0.0, 0.0, 0.0, 1.677182204908238E9, 0.0, 2023-02-23 11:56:44.908
113.0, 16680.59279687319, 16734.192280077015, 0.0, 0.0, 0.0, 0.0, 0.0, 0.0, 0.67, 0.626, -0.378, 192.0, 0.0, 0.0, 0.0, 0.0, 0.0, 0.0, 0.0, 0.0, 0.0, 1.677182204915303E9, 0.0, 2023-02-23 11:56:44.915
114.0, 16683.789096330296, 16743.289440070326, 0.0, 0.0, 0.0, 0.0, 0.0, 0.0, 0.67, 0.626, -0.378, 192.0, 0.0, 0.0, 0.0, 0.0, 0.0, 0.0, 0.0, 0.0, 0.0, 1.677182204915321E9, 0.0, 2023-02-23 11:56:44.915
115.0, 16683.5879306302, 16744.31762031527, 0.0, 0.0, 0.0, 0.0, 0.0, 0.0, 0.67, 0.626, -0.378, 192.0, 0.0, 0.0, 0.0, 0.0, 0.0, 0.0, 0.0, 0.0, 0.0, 1.67718220492214E9, 0.0, 2023-02-23 11:56:44.922
116.0, 16689.555846399766, 16738.17089059006, 0.0, 0.0, 0.0, 0.0, 0.0, 0.0, 0.67, 0.626, -0.378, 192.0, 0.0, 0.0, 0.0, 0.0, 0.0, 0.0, 0.0, 0.0, 0.0, 1.677182204922156E9, 0.0, 2023-02-23 11:56:44.922
117.0, 16686.02427077583, 16737.947373145507, 0.0, 0.0, 0.0, 0.0, 0.0, 0.0, 0.668, 0.628, -0.378, 192.0, 20.0, 224.0, 19.0, 160.0, 244.0, 48.0, 0.0, 0.0, 0.0, 1.677182204929879E9, 0.0, 2023-02-23 11:56:44.929
118.0, 16687.790058587798, 16744.205861592993, 0.0, 0.0, 0.0, 0.0, 0.0, 0.0, 0.668, 0.628, -0.378, 192.0, 0.0, 0.0, 0.0, 0.0, 0.0, 0.0, 0.0, 0.0, 0.0, 1.677182204937918E9, 0.0, 2023-02-23 11:56:44.937
119.0, 16687.566541143246, 16736.159233589082, 0.0, 0.0, 0.0, 0.0, 0.0, 0.0, 0.668, 0.628, -0.378, 192.0, 0.0, 0.0, 0.0, 0.0, 0.0, 0.0, 0.0, 0.0, 0.0, 1.677182204937927E9, 0.0, 2023-02-23 11:56:44.937
120.0, 16679.45285790597, 16727.576163718244, 0.0, 0.0, 0.0, 0.0, 0.0, 0.0, 0.668, 0.628, -0.378, 192.0, 0.0, 0.0, 0.0, 0.0, 0.0, 0.0, 0.0, 0.0, 0.0, 1.67718220494506E9, 0.0, 2023-02-23 11:56:44.945
121.0, 16671.003898501862, 16726.726797428943, 0.0, 0.0, 0.0, 0.0, 0.0, 0.0, 0.668, 0.628, -0.378, 192.0, 0.0, 0.0, 0.0, 0.0, 0.0, 0.0, 0.0, 0.0, 0.0, 1.677182204945079E9, 0.0, 2023-02-23 11:56:44.945
122.0, 16676.368317171135, 16730.21366956397, 0.0, 0.0, 0.0, 0.0, 0.0, 0.0, 0.668, 0.628, -0.378, 192.0, 0.0, 0.0, 0.0, 0.0, 0.0, 0.0, 0.0, 0.0, 0.0, 1.677182204952504E9, 0.0, 2023-02-23 11:56:44.952
123.0, 16676.92711078252, 16730.59364921971, 0.0, 0.0, 0.0, 0.0, 0.0, 0.0, 0.668, 0.628, -0.378, 192.0, 0.0, 0.0, 0.0, 0.0, 0.0, 0.0, 0.0, 0.0, 0.0, 1.677182204952546E9, 0.0, 2023-02-23 11:56:44.952
124.0, 16679.363450928147, 16730.437187008523, 0.0, 0.0, 0.0, 0.0, 0.0, 0.0, 0.668, 0.628, -0.378, 192.0, 0.0, 0.0, 0.0, 0.0, 0.0, 0.0, 0.0, 0.0, 0.0, 1.677182204960565E9, 0.0, 2023-02-23 11:56:44.960
125.0, 16676.614186360144, 16730.41483526407, 0.0, 0.0, 0.0, 0.0, 0.0, 0.0, 0.668, 0.628, -0.378, 192.0, 0.0, 0.0, 0.0, 0.0, 0.0, 0.0, 0.0, 0.0, 0.0, 1.677182204960583E9, 0.0, 2023-02-23 11:56:44.960
126.0, 16677.865884049643, 16740.093140613215, 0.0, 0.0, 0.0, 0.0, 0.0, 0.0, 0.668, 0.628, -0.378, 192.0, 0.0, 0.0, 0.0, 0.0, 0.0, 0.0, 0.0, 0.0, 0.0, 1.6771822049687E9, 0.0, 2023-02-23 11:56:44.968
127.0, 16679.899892795074, 16731.912402142574, 0.0, 0.0, 0.0, 0.0, 0.0, 0.0, 0.672, 0.624, -0.374, 192.0, 21.0, 0.0, 19.0, 128.0, 244.0, 80.0, 0.0, 0.0, 0.0, 1.677182204968711E9, 0.0, 2023-02-23 11:56:44.968
128.0, 16681.73273584041, 16731.688884698022, 0.0, 0.0, 0.0, 0.0, 0.0, 0.0, 0.672, 0.624, -0.374, 192.0, 0.0, 0.0, 0.0, 0.0, 0.0, 0.0, 0.0, 0.0, 0.0, 1.677182204975217E9, 0.0, 2023-02-23 11:56:44.975
129.0, 16676.10009623767, 16731.308905042282, 0.0, 0.0, 0.0, 0.0, 0.0, 0.0, 0.672, 0.624, -0.374, 192.0, 0.0, 0.0, 0.0, 0.0, 0.0, 0.0, 0.0, 0.0, 0.0, 1.677182204975231E9, 0.0, 2023-02-23 11:56:44.975
130.0, 16677.35179392717, 16724.715140427965, 0.0, 0.0, 0.0, 0.0, 0.0, 0.0, 0.672, 0.624, -0.374, 192.0, 0.0, 0.0, 0.0, 0.0, 0.0, 0.0, 0.0, 0.0, 0.0, 1.677182204983232E9, 0.0, 2023-02-23 11:56:44.983
131.0, 16684.571407386233, 16728.11260558517, 0.0, 0.0, 0.0, 0.0, 0.0, 0.0, 0.672, 0.624, -0.374, 192.0, 0.0, 0.0, 0.0, 0.0, 0.0, 0.0, 0.0, 0.0, 0.0, 1.677182204983241E9, 0.0, 2023-02-23 11:56:44.983
132.0, 16676.636538104598, 16722.099986326695, 0.0, 0.0, 0.0, 0.0, 0.0, 0.0, 0.672, 0.624, -0.374, 192.0, 0.0, 0.0, 0.0, 0.0, 0.0, 0.0, 0.0, 0.0, 0.0, 1.677182204990199E9, 0.0, 2023-02-23 11:56:44.990
133.0, 16665.997107743875, 16716.22147753495, 0.0, 0.0, 0.0, 0.0, 0.0, 0.0, 0.672, 0.624, -0.374, 192.0, 0.0, 0.0, 0.0, 0.0, 0.0, 0.0, 0.0, 0.0, 0.0, 1.677182204998356E9, 0.0, 2023-02-23 11:56:44.998
134.0, 16672.8367415472, 16718.12137581365, 0.0, 0.0, 0.0, 0.0, 0.0, 0.0, 0.672, 0.624, -0.374, 192.0, 0.0, 0.0, 0.0, 0.0, 0.0, 0.0, 0.0, 0.0, 0.0, 1.677182204998408E9, 0.0, 2023-02-23 11:56:44.998
135.0, 16687.00774753186, 16731.532422486835, 0.0, 0.0, 0.0, 0.0, 0.0, 0.0, 0.672, 0.624, -0.374, 192.0, 0.0, 0.0, 0.0, 0.0, 0.0, 0.0, 0.0, 0.0, 0.0, 1.677182205004989E9, 0.0, 2023-02-23 11:56:45.004
136.0, 16683.945558541483, 16728.090253840717, 0.0, 0.0, 0.0, 0.0, 0.0, 0.0, 0.672, 0.624, -0.374, 192.0, 0.0, 0.0, 0.0, 0.0, 0.0, 0.0, 0.0, 0.0, 0.0, 1.677182205005005E9, 0.0, 2023-02-23 11:56:45.005
137.0, 16672.18854095799, 16720.02127409235, 0.0, 0.0, 0.0, 0.0, 0.0, 0.0, 0.674, 0.626, -0.368, 192.0, 21.0, 16.0, 19.0, 144.0, 244.0, 128.0, 0.0, 0.0, 0.0, 1.677182205012806E9, 0.0, 2023-02-23 11:56:45.012
138.0, 16672.21089270245, 16724.111643327673, 0.0, 0.0, 0.0, 0.0, 0.0, 0.0, 0.674, 0.626, -0.368, 192.0, 0.0, 0.0, 0.0, 0.0, 0.0, 0.0, 0.0, 0.0, 0.0, 1.67718220501282E9, 0.0, 2023-02-23 11:56:45.012
139.0, 16677.10592473816, 16730.481890497435, 0.0, 0.0, 0.0, 0.0, 0.0, 0.0, 0.674, 0.626, -0.368, 192.0, 0.0, 0.0, 0.0, 0.0, 0.0, 0.0, 0.0, 0.0, 0.0, 1.677182205022198E9, 0.0, 2023-02-23 11:56:45.022
140.0, 16677.687070093998, 16726.92796312904, 0.0, 0.0, 0.0, 0.0, 0.0, 0.0, 0.674, 0.626, -0.368, 192.0, 0.0, 0.0, 0.0, 0.0, 0.0, 0.0, 0.0, 0.0, 0.0, 1.677182205022213E9, 0.0, 2023-02-23 11:56:45.022
141.0, 16669.998070001373, 16715.3944629901, 0.0, 0.0, 0.0, 0.0, 0.0, 0.0, 0.674, 0.626, -0.368, 192.0, 0.0, 0.0, 0.0, 0.0, 0.0, 0.0, 0.0, 0.0, 0.0, 1.677182205028414E9, 0.0, 2023-02-23 11:56:45.028
142.0, 16676.413020660046, 16715.41681473456, 0.0, 0.0, 0.0, 0.0, 0.0, 0.0, 0.674, 0.626, -0.368, 192.0, 0.0, 0.0, 0.0, 0.0, 0.0, 0.0, 0.0, 0.0, 0.0, 1.677182205028427E9, 0.0, 2023-02-23 11:56:45.028
143.0, 16681.82214281823, 16725.11747182816, 0.0, 0.0, 0.0, 0.0, 0.0, 0.0, 0.674, 0.626, -0.368, 192.0, 0.0, 0.0, 0.0, 0.0, 0.0, 0.0, 0.0, 0.0, 0.0, 1.677182205035486E9, 0.0, 2023-02-23 11:56:45.035
144.0, 16679.430506161512, 16725.720968928454, 0.0, 0.0, 0.0, 0.0, 0.0, 0.0, 0.674, 0.626, -0.368, 192.0, 0.0, 0.0, 0.0, 0.0, 0.0, 0.0, 0.0, 0.0, 0.0, 1.677182205035515E9, 0.0, 2023-02-23 11:56:45.035
145.0, 16673.931977025506, 16719.484832225422, 0.0, 0.0, 0.0, 0.0, 0.0, 0.0, 0.674, 0.626, -0.368, 192.0, 0.0, 0.0, 0.0, 0.0, 0.0, 0.0, 0.0, 0.0, 0.0, 1.677182205044908E9, 0.0, 2023-02-23 11:56:45.044
146.0, 16675.5860061152, 16722.636428193622, 0.0, 0.0, 0.0, 0.0, 0.0, 0.0, 0.674, 0.626, -0.368, 192.0, 0.0, 0.0, 0.0, 0.0, 0.0, 0.0, 0.0, 0.0, 0.0, 1.677182205044925E9, 0.0, 2023-02-23 11:56:45.044
147.0, 16680.123410239627, 16723.619904949654, 0.0, 0.0, 0.0, 0.0, 0.0, 0.0, 0.676, 0.628, -0.37, 192.0, 21.0, 32.0, 19.0, 160.0, 244.0, 112.0, 0.0, 0.0, 0.0, 1.677182205050845E9, 0.0, 2023-02-23 11:56:45.050
148.0, 16680.235168961903, 16728.671399196555, 0.0, 0.0, 0.0, 0.0, 0.0, 0.0, 0.676, 0.628, -0.37, 192.0, 0.0, 0.0, 0.0, 0.0, 0.0, 0.0, 0.0, 0.0, 0.0, 1.677182205057647E9, 0.0, 2023-02-23 11:56:45.057
149.0, 16674.557825870255, 16726.346817773203, 0.0, 0.0, 0.0, 0.0, 0.0, 0.0, 0.676, 0.628, -0.37, 192.0, 0.0, 0.0, 0.0, 0.0, 0.0, 0.0, 0.0, 0.0, 0.0, 1.677182205057661E9, 0.0, 2023-02-23 11:56:45.057
150.0, 16674.49077063689, 16725.050416594793, 0.0, 0.0, 0.0, 0.0, 0.0, 0.0, 0.676, 0.628, -0.37, 192.0, 0.0, 0.0, 0.0, 0.0, 0.0, 0.0, 0.0, 0.0, 0.0, 1.677182205065051E9, 0.0, 2023-02-23 11:56:45.065
151.0, 16679.5869683727, 16738.84144292372, 0.0, 0.0, 0.0, 0.0, 0.0, 0.0, 0.676, 0.628, -0.37, 192.0, 0.0, 0.0, 0.0, 0.0, 0.0, 0.0, 0.0, 0.0, 0.0, 1.677182205065082E9, 0.0, 2023-02-23 11:56:45.065
152.0, 16681.8891980516, 16737.79091093432, 0.0, 0.0, 0.0, 0.0, 0.0, 0.0, 0.676, 0.628, -0.37, 192.0, 0.0, 0.0, 0.0, 0.0, 0.0, 0.0, 0.0, 0.0, 0.0, 1.677182205073164E9, 0.0, 2023-02-23 11:56:45.073
153.0, 16676.59183461569, 16717.78609964682, 0.0, 0.0, 0.0, 0.0, 0.0, 0.0, 0.676, 0.628, -0.37, 192.0, 0.0, 0.0, 0.0, 0.0, 0.0, 0.0, 0.0, 0.0, 0.0, 1.677182205073173E9, 0.0, 2023-02-23 11:56:45.073
154.0, 16678.983471272408, 16714.902724612086, 0.0, 0.0, 0.0, 0.0, 0.0, 0.0, 0.676, 0.628, -0.37, 192.0, 0.0, 0.0, 0.0, 0.0, 0.0, 0.0, 0.0, 0.0, 0.0, 1.677182205081069E9, 0.0, 2023-02-23 11:56:45.081
155.0, 16682.91737829654, 16723.038759593815, 0.0, 0.0, 0.0, 0.0, 0.0, 0.0, 0.676, 0.628, -0.37, 192.0, 0.0, 0.0, 0.0, 0.0, 0.0, 0.0, 0.0, 0.0, 0.0, 1.677182205081088E9, 0.0, 2023-02-23 11:56:45.081
156.0, 16677.128276482617, 16724.15634681658, 0.0, 0.0, 0.0, 0.0, 0.0, 0.0, 0.676, 0.628, -0.37, 192.0, 0.0, 0.0, 0.0, 0.0, 0.0, 0.0, 0.0, 0.0, 0.0, 1.677182205087568E9, 0.0, 2023-02-23 11:56:45.087
157.0, 16681.531570140312, 16724.60338170569, 0.0, 0.0, 0.0, 0.0, 0.0, 0.0, 0.672, 0.628, -0.368, 192.0, 21.0, 0.0, 19.0, 160.0, 244.0, 128.0, 0.0, 0.0, 0.0, 1.677182205087584E9, 0.0, 2023-02-23 11:56:45.087
158.0, 16680.01165151735, 16727.017370106863, 0.0, 0.0, 0.0, 0.0, 0.0, 0.0, 0.672, 0.628, -0.368, 192.0, 0.0, 0.0, 0.0, 0.0, 0.0, 0.0, 0.0, 0.0, 0.0, 1.677182205095653E9, 0.0, 2023-02-23 11:56:45.095
159.0, 16680.168113728538, 16724.8492508947, 0.0, 0.0, 0.0, 0.0, 0.0, 0.0, 0.672, 0.628, -0.368, 192.0, 0.0, 0.0, 0.0, 0.0, 0.0, 0.0, 0.0, 0.0, 0.0, 1.677182205095668E9, 0.0, 2023-02-23 11:56:45.095
160.0, 16679.899892795074, 16728.716102685466, 0.0, 0.0, 0.0, 0.0, 0.0, 0.0, 0.672, 0.628, -0.368, 192.0, 0.0, 0.0, 0.0, 0.0, 0.0, 0.0, 0.0, 0.0, 0.0, 1.677182205103868E9, 0.0, 2023-02-23 11:56:45.103
161.0, 16678.648195105576, 16726.995018362406, 0.0, 0.0, 0.0, 0.0, 0.0, 0.0, 0.672, 0.628, -0.368, 192.0, 0.0, 0.0, 0.0, 0.0, 0.0, 0.0, 0.0, 0.0, 0.0, 1.677182205103883E9, 0.0, 2023-02-23 11:56:45.103
162.0, 16679.564616628246, 16725.050416594793, 0.0, 0.0, 0.0, 0.0, 0.0, 0.0, 0.672, 0.628, -0.368, 192.0, 0.0, 0.0, 0.0, 0.0, 0.0, 0.0, 0.0, 0.0, 0.0, 1.677182205109839E9, 0.0, 2023-02-23 11:56:45.109
163.0, 16676.72594508242, 16728.827861407743, 0.0, 0.0, 0.0, 0.0, 0.0, 0.0, 0.672, 0.628, -0.368, 192.0, 0.0, 0.0, 0.0, 0.0, 0.0, 0.0, 0.0, 0.0, 0.0, 1.677182205117313E9, 0.0, 2023-02-23 11:56:45.117
164.0, 16683.520875396833, 16740.69663771351, 0.0, 0.0, 0.0, 0.0, 0.0, 0.0, 0.672, 0.628, -0.368, 192.0, 0.0, 0.0, 0.0, 0.0, 0.0, 0.0, 0.0, 0.0, 0.0, 1.677182205117324E9, 0.0, 2023-02-23 11:56:45.117
165.0, 16681.844494562687, 16738.59557373471, 0.0, 0.0, 0.0, 0.0, 0.0, 0.0, 0.672, 0.628, -0.368, 192.0, 0.0, 0.0, 0.0, 0.0, 0.0, 0.0, 0.0, 0.0, 0.0, 1.677182205125247E9, 0.0, 2023-02-23 11:56:45.125
166.0, 16675.429543904014, 16730.303076541793, 0.0, 0.0, 0.0, 0.0, 0.0, 0.0, 0.672, 0.624, -0.37, 192.0, 21.0, 0.0, 19.0, 128.0, 244.0, 112.0, 0.0, 0.0, 0.0, 1.677182205125265E9, 0.0, 2023-02-23 11:56:45.125
167.0, 16680.01165151735, 16729.252544552393, 0.0, 0.0, 0.0, 0.0, 0.0, 0.0, 0.672, 0.624, -0.37, 192.0, 0.0, 0.0, 0.0, 0.0, 0.0, 0.0, 0.0, 0.0, 0.0, 1.677182205133403E9, 0.0, 2023-02-23 11:56:45.133
168.0, 16684.72786959742, 16724.78219566133, 0.0, 0.0, 0.0, 0.0, 0.0, 0.0, 0.672, 0.624, -0.37, 192.0, 0.0, 0.0, 0.0, 0.0, 0.0, 0.0, 0.0, 0.0, 0.0, 1.67718220513345E9, 0.0, 2023-02-23 11:56:45.133
169.0, 16680.235168961903, 16719.350721758692, 0.0, 0.0, 0.0, 0.0, 0.0, 0.0, 0.672, 0.624, -0.37, 192.0, 0.0, 0.0, 0.0, 0.0, 0.0, 0.0, 0.0, 0.0, 0.0, 1.67718220514014E9, 0.0, 2023-02-23 11:56:45.140
170.0, 16671.272119435325, 16717.540230457813, 0.0, 0.0, 0.0, 0.0, 0.0, 0.0, 0.672, 0.624, -0.37, 192.0, 0.0, 0.0, 0.0, 0.0, 0.0, 0.0, 0.0, 0.0, 0.0, 1.677182205140159E9, 0.0, 2023-02-23 11:56:45.140
171.0, 16676.72594508242, 16720.423605492546, 0.0, 0.0, 0.0, 0.0, 0.0, 0.0, 0.672, 0.624, -0.37, 192.0, 0.0, 0.0, 0.0, 0.0, 0.0, 0.0, 0.0, 0.0, 0.0, 1.67718220514794E9, 0.0, 2023-02-23 11:56:45.147
172.0, 16682.24682596288, 16714.29922751179, 0.0, 0.0, 0.0, 0.0, 0.0, 0.0, 0.672, 0.624, -0.37, 192.0, 0.0, 0.0, 0.0, 0.0, 0.0, 0.0, 0.0, 0.0, 0.0, 1.677182205147951E9, 0.0, 2023-02-23 11:56:45.147
173.0, 16682.87267480763, 16722.16704156006, 0.0, 0.0, 0.0, 0.0, 0.0, 0.0, 0.672, 0.624, -0.37, 192.0, 0.0, 0.0, 0.0, 0.0, 0.0, 0.0, 0.0, 0.0, 0.0, 1.677182205156064E9, 0.0, 2023-02-23 11:56:45.156
174.0, 16684.97373878643, 16723.955181116486, 0.0, 0.0, 0.0, 0.0, 0.0, 0.0, 0.672, 0.624, -0.37, 192.0, 0.0, 0.0, 0.0, 0.0, 0.0, 0.0, 0.0, 0.0, 0.0, 1.677182205156074E9, 0.0, 2023-02-23 11:56:45.156
175.0, 16683.5879306302, 16722.97170436045, 0.0, 0.0, 0.0, 0.0, 0.0, 0.0, 0.672, 0.624, -0.37, 192.0, 0.0, 0.0, 0.0, 0.0, 0.0, 0.0, 0.0, 0.0, 0.0, 1.677182205163107E9, 0.0, 2023-02-23 11:56:45.163
176.0, 16675.138971226093, 16719.46248048097, 0.0, 0.0, 0.0, 0.0, 0.0, 0.0, 0.678, 0.618, -0.374, 192.0, 21.0, 48.0, 19.0, 80.0, 244.0, 80.0, 0.0, 0.0, 0.0, 1.677182205163118E9, 0.0, 2023-02-23 11:56:45.163
177.0, 16667.44997113347, 16715.461518223467, 0.0, 0.0, 0.0, 0.0, 0.0, 0.0, 0.678, 0.618, -0.374, 192.0, 0.0, 0.0, 0.0, 0.0, 0.0, 0.0, 0.0, 0.0, 0.0, 1.677182205169597E9, 0.0, 2023-02-23 11:56:45.169
178.0, 16667.20410194446, 16719.171907803047, 0.0, 0.0, 0.0, 0.0, 0.0, 0.0, 0.678, 0.618, -0.374, 192.0, 0.0, 0.0, 0.0, 0.0, 0.0, 0.0, 0.0, 0.0, 0.0, 1.677182205169616E9, 0.0, 2023-02-23 11:56:45.169
179.0, 16679.3858026726, 16722.479965982435, 0.0, 0.0, 0.0, 0.0, 0.0, 0.0, 0.678, 0.618, -0.374, 192.0, 0.0, 0.0, 0.0, 0.0, 0.0, 0.0, 0.0, 0.0, 0.0, 1.677182205177713E9, 0.0, 2023-02-23 11:56:45.177
180.0, 16687.052451020772, 16722.658779938076, 0.0, 0.0, 0.0, 0.0, 0.0, 0.0, 0.678, 0.618, -0.374, 192.0, 0.0, 0.0, 0.0, 0.0, 0.0, 0.0, 0.0, 0.0, 0.0, 1.677182205185731E9, 0.0, 2023-02-23 11:56:45.185
181.0, 16687.946520798985, 16726.30211428429, 0.0, 0.0, 0.0, 0.0, 0.0, 0.0, 0.678, 0.618, -0.374, 192.0, 0.0, 0.0, 0.0, 0.0, 0.0, 0.0, 0.0, 0.0, 0.0, 1.67718220518575E9, 0.0, 2023-02-23 11:56:45.185
182.0, 16691.053413278274, 16727.419701507057, 0.0, 0.0, 0.0, 0.0, 0.0, 0.0, 0.678, 0.618, -0.374, 192.0, 0.0, 0.0, 0.0, 0.0, 0.0, 0.0, 0.0, 0.0, 0.0, 1.677182205192927E9, 0.0, 2023-02-23 11:56:45.192
183.0, 16681.933901540506, 16722.815242149263, 0.0, 0.0, 0.0, 0.0, 0.0, 0.0, 0.678, 0.618, -0.374, 192.0, 0.0, 0.0, 0.0, 0.0, 0.0, 0.0, 0.0, 0.0, 0.0, 1.677182205192939E9, 0.0, 2023-02-23 11:56:45.192
184.0, 16680.972776528928, 16722.770538660352, 0.0, 0.0, 0.0, 0.0, 0.0, 0.0, 0.678, 0.618, -0.374, 192.0, 0.0, 0.0, 0.0, 0.0, 0.0, 0.0, 0.0, 0.0, 0.0, 1.677182205200188E9, 0.0, 2023-02-23 11:56:45.200
185.0, 16683.610282374655, 16730.705407941987, 0.0, 0.0, 0.0, 0.0, 0.0, 0.0, 0.678, 0.618, -0.374, 192.0, 0.0, 0.0, 0.0, 0.0, 0.0, 0.0, 0.0, 0.0, 0.0, 1.677182205200225E9, 0.0, 2023-02-23 11:56:45.200
186.0, 16683.699689352477, 16734.035817865828, 0.0, 0.0, 0.0, 0.0, 0.0, 0.0, 0.672, 0.622, -0.374, 192.0, 21.0, 0.0, 19.0, 112.0, 244.0, 80.0, 0.0, 0.0, 0.0, 1.677182205208261E9, 0.0, 2023-02-23 11:56:45.208
187.0, 16681.352756184668, 16731.912402142574, 0.0, 0.0, 0.0, 0.0, 0.0, 0.0, 0.672, 0.622, -0.374, 192.0, 0.0, 0.0, 0.0, 0.0, 0.0, 0.0, 0.0, 0.0, 0.0, 1.677182205208275E9, 0.0, 2023-02-23 11:56:45.208
188.0, 16684.951387041972, 16738.03678012333, 0.0, 0.0, 0.0, 0.0, 0.0, 0.0, 0.672, 0.622, -0.374, 192.0, 0.0, 0.0, 0.0, 0.0, 0.0, 0.0, 0.0, 0.0, 0.0, 1.677182205216303E9, 0.0, 2023-02-23 11:56:45.216
189.0, 16684.213779474947, 16737.634448723133, 0.0, 0.0, 0.0, 0.0, 0.0, 0.0, 0.672, 0.622, -0.374, 192.0, 0.0, 0.0, 0.0, 0.0, 0.0, 0.0, 0.0, 0.0, 0.0, 1.677182205216326E9, 0.0, 2023-02-23 11:56:45.216
190.0, 16683.073840507728, 16732.20297482049, 0.0, 0.0, 0.0, 0.0, 0.0, 0.0, 0.672, 0.622, -0.374, 192.0, 0.0, 0.0, 0.0, 0.0, 0.0, 0.0, 0.0, 0.0, 0.0, 1.677182205222944E9, 0.0, 2023-02-23 11:56:45.222
191.0, 16688.326500454725, 16729.721931185955, 0.0, 0.0, 0.0, 0.0, 0.0, 0.0, 0.672, 0.622, -0.374, 192.0, 0.0, 0.0, 0.0, 0.0, 0.0, 0.0, 0.0, 0.0, 0.0, 1.677182205222965E9, 0.0, 2023-02-23 11:56:45.222
192.0, 16687.790058587798, 16727.64321895161, 0.0, 0.0, 0.0, 0.0, 0.0, 0.0, 0.672, 0.622, -0.374, 192.0, 0.0, 0.0, 0.0, 0.0, 0.0, 0.0, 0.0, 0.0, 0.0, 1.677182205230909E9, 0.0, 2023-02-23 11:56:45.230
193.0, 16692.93095981252, 16725.966838117463, 0.0, 0.0, 0.0, 0.0, 0.0, 0.0, 0.672, 0.622, -0.374, 192.0, 0.0, 0.0, 0.0, 0.0, 0.0, 0.0, 0.0, 0.0, 0.0, 1.677182205230927E9, 0.0, 2023-02-23 11:56:45.230
194.0, 16693.98149180192, 16730.616000964164, 0.0, 0.0, 0.0, 0.0, 0.0, 0.0, 0.672, 0.622, -0.374, 192.0, 0.0, 0.0, 0.0, 0.0, 0.0, 0.0, 0.0, 0.0, 0.0, 1.677182205237902E9, 0.0, 2023-02-23 11:56:45.237
195.0, 16681.911549796052, 16722.12233807115, 0.0, 0.0, 0.0, 0.0, 0.0, 0.0, 0.672, 0.622, -0.374, 192.0, 0.0, 0.0, 0.0, 0.0, 0.0, 0.0, 0.0, 0.0, 0.0, 1.677182205246062E9, 0.0, 2023-02-23 11:56:45.246
196.0, 16676.390668915592, 16714.053358322784, 0.0, 0.0, 0.0, 0.0, 0.0, 0.0, 0.68, 0.624, -0.374, 192.0, 21.0, 64.0, 19.0, 128.0, 244.0, 80.0, 0.0, 0.0, 0.0, 1.677182205246075E9, 0.0, 2023-02-23 11:56:45.246
197.0, 16686.895988809585, 16717.16025080207, 0.0, 0.0, 0.0, 0.0, 0.0, 0.0, 0.68, 0.624, -0.374, 192.0, 0.0, 0.0, 0.0, 0.0, 0.0, 0.0, 0.0, 0.0, 0.0, 1.67718220525388E9, 0.0, 2023-02-23 11:56:45.253
198.0, 16699.524724426832, 16725.318637528257, 0.0, 0.0, 0.0, 0.0, 0.0, 0.0, 0.68, 0.624, -0.374, 192.0, 0.0, 0.0, 0.0, 0.0, 0.0, 0.0, 0.0, 0.0, 0.0, 1.677182205253891E9, 0.0, 2023-02-23 11:56:45.253
199.0, 16685.95721554246, 16726.950314873495, 0.0, 0.0, 0.0, 0.0, 0.0, 0.0, 0.68, 0.624, -0.374, 192.0, 0.0, 0.0, 0.0, 0.0, 0.0, 0.0, 0.0, 0.0, 0.0, 1.677182205260515E9, 0.0, 2023-02-23 11:56:45.260
200.0, 16669.506331623357, 16720.848288637197, 0.0, 0.0, 0.0, 0.0, 0.0, 0.0, 0.68, 0.624, -0.374, 192.0, 0.0, 0.0, 0.0, 0.0, 0.0, 0.0, 0.0, 0.0, 0.0, 1.677182205260536E9, 0.0, 2023-02-23 11:56:45.260
201.0, 16673.19436945848, 16724.26810553886, 0.0, 0.0, 0.0, 0.0, 0.0, 0.0, 0.68, 0.624, -0.374, 192.0, 0.0, 0.0, 0.0, 0.0, 0.0, 0.0, 0.0, 0.0, 0.0, 1.677182205268573E9, 0.0, 2023-02-23 11:56:45.268
202.0, 16680.905721295563, 16723.3963875051, 0.0, 0.0, 0.0, 0.0, 0.0, 0.0, 0.68, 0.624, -0.374, 192.0, 0.0, 0.0, 0.0, 0.0, 0.0, 0.0, 0.0, 0.0, 0.0, 1.677182205268589E9, 0.0, 2023-02-23 11:56:45.268
203.0, 16677.575311371722, 16715.819146134752, 0.0, 0.0, 0.0, 0.0, 0.0, 0.0, 0.68, 0.624, -0.374, 192.0, 0.0, 0.0, 0.0, 0.0, 0.0, 0.0, 0.0, 0.0, 0.0, 1.677182205277134E9, 0.0, 2023-02-23 11:56:45.277
204.0, 16674.267253192338, 16715.26035252337, 0.0, 0.0, 0.0, 0.0, 0.0, 0.0, 0.68, 0.624, -0.374, 192.0, 0.0, 0.0, 0.0, 0.0, 0.0, 0.0, 0.0, 0.0, 0.0, 1.677182205277153E9, 0.0, 2023-02-23 11:56:45.277
205.0, 16680.503389895366, 16718.68016942503, 0.0, 0.0, 0.0, 0.0, 0.0, 0.0, 0.68, 0.624, -0.374, 192.0, 0.0, 0.0, 0.0, 0.0, 0.0, 0.0, 0.0, 0.0, 0.0, 1.677182205283308E9, 0.0, 2023-02-23 11:56:45.283
206.0, 16687.991224287896, 16721.2953235263, 0.0, 0.0, 0.0, 0.0, 0.0, 0.0, 0.676, 0.626, -0.376, 192.0, 21.0, 32.0, 19.0, 144.0, 244.0, 64.0, 0.0, 0.0, 0.0, 1.67718220528332E9, 0.0, 2023-02-23 11:56:45.283
207.0, 16680.615148617646, 16716.02031183485, 0.0, 0.0, 0.0, 0.0, 0.0, 0.0, 0.676, 0.626, -0.376, 192.0, 0.0, 0.0, 0.0, 0.0, 0.0, 0.0, 0.0, 0.0, 0.0, 1.677182205291161E9, 0.0, 2023-02-23 11:56:45.291
208.0, 16681.844494562687, 16717.093195568705, 0.0, 0.0, 0.0, 0.0, 0.0, 0.0, 0.676, 0.626, -0.376, 192.0, 0.0, 0.0, 0.0, 0.0, 0.0, 0.0, 0.0, 0.0, 0.0, 1.677182205291184E9, 0.0, 2023-02-23 11:56:45.291
209.0, 16681.956253284963, 16723.93282937203, 0.0, 0.0, 0.0, 0.0, 0.0, 0.0, 0.676, 0.626, -0.376, 192.0, 0.0, 0.0, 0.0, 0.0, 0.0, 0.0, 0.0, 0.0, 0.0, 1.677182205298245E9, 0.0, 2023-02-23 11:56:45.298
210.0, 16685.53253239781, 16736.18158533354, 0.0, 0.0, 0.0, 0.0, 0.0, 0.0, 0.676, 0.626, -0.376, 192.0, 0.0, 0.0, 0.0, 0.0, 0.0, 0.0, 0.0, 0.0, 0.0, 1.677182205304973E9, 0.0, 2023-02-23 11:56:45.304
211.0, 16683.29735795228, 16726.011541606375, 0.0, 0.0, 0.0, 0.0, 0.0, 0.0, 0.676, 0.626, -0.376, 192.0, 0.0, 0.0, 0.0, 0.0, 0.0, 0.0, 0.0, 0.0, 0.0, 1.677182205304993E9, 0.0, 2023-02-23 11:56:45.304
212.0, 16690.561674900255, 16729.341951530212, 0.0, 0.0, 0.0, 0.0, 0.0, 0.0, 0.676, 0.626, -0.376, 192.0, 0.0, 0.0, 0.0, 0.0, 0.0, 0.0, 0.0, 0.0, 0.0, 1.677182205312956E9, 0.0, 2023-02-23 11:56:45.312
213.0, 16689.421735933036, 16732.493547498412, 0.0, 0.0, 0.0, 0.0, 0.0, 0.0, 0.676, 0.626, -0.376, 192.0, 0.0, 0.0, 0.0, 0.0, 0.0, 0.0, 0.0, 0.0, 0.0, 1.677182205312972E9, 0.0, 2023-02-23 11:56:45.312
214.0, 16690.91930281154, 16729.274896296847, 0.0, 0.0, 0.0, 0.0, 0.0, 0.0, 0.676, 0.626, -0.376, 192.0, 0.0, 0.0, 0.0, 0.0, 0.0, 0.0, 0.0, 0.0, 0.0, 1.677182205320813E9, 0.0, 2023-02-23 11:56:45.320
215.0, 16697.043680792296, 16728.894916641108, 0.0, 0.0, 0.0, 0.0, 0.0, 0.0, 0.676, 0.626, -0.376, 192.0, 0.0, 0.0, 0.0, 0.0, 0.0, 0.0, 0.0, 0.0, 0.0, 1.677182205320829E9, 0.0, 2023-02-23 11:56:45.320
216.0, 16693.690919123997, 16729.029027107837, 0.0, 0.0, 0.0, 0.0, 0.0, 0.0, 0.678, 0.626, -0.376, 192.0, 21.0, 48.0, 19.0, 144.0, 244.0, 64.0, 0.0, 0.0, 0.0, 1.677182205327915E9, 0.0, 2023-02-23 11:56:45.327
217.0, 16692.573331901232, 16728.69375094101, 0.0, 0.0, 0.0, 0.0, 0.0, 0.0, 0.678, 0.626, -0.376, 192.0, 0.0, 0.0, 0.0, 0.0, 0.0, 0.0, 0.0, 0.0, 0.0, 1.677182205327927E9, 0.0, 2023-02-23 11:56:45.327
218.0, 16694.137954013106, 16731.64418120911, 0.0, 0.0, 0.0, 0.0, 0.0, 0.0, 0.678, 0.626, -0.376, 192.0, 0.0, 0.0, 0.0, 0.0, 0.0, 0.0, 0.0, 0.0, 0.0, 1.677182205335547E9, 0.0, 2023-02-23 11:56:45.335
219.0, 16690.092288266693, 16729.632524208133, 0.0, 0.0, 0.0, 0.0, 0.0, 0.0, 0.678, 0.626, -0.376, 192.0, 0.0, 0.0, 0.0, 0.0, 0.0, 0.0, 0.0, 0.0, 0.0, 1.677182205335558E9, 0.0, 2023-02-23 11:56:45.335
220.0, 16684.571407386233, 16722.882297382628, 0.0, 0.0, 0.0, 0.0, 0.0, 0.0, 0.678, 0.626, -0.376, 192.0, 0.0, 0.0, 0.0, 0.0, 0.0, 0.0, 0.0, 0.0, 0.0, 1.677182205343485E9, 0.0, 2023-02-23 11:56:45.343
221.0, 16686.650119620575, 16721.74235841541, 0.0, 0.0, 0.0, 0.0, 0.0, 0.0, 0.678, 0.626, -0.376, 192.0, 0.0, 0.0, 0.0, 0.0, 0.0, 0.0, 0.0, 0.0, 0.0, 1.677182205343497E9, 0.0, 2023-02-23 11:56:45.343
222.0, 16693.087422023706, 16729.766634674863, 0.0, 0.0, 0.0, 0.0, 0.0, 0.0, 0.678, 0.626, -0.376, 192.0, 0.0, 0.0, 0.0, 0.0, 0.0, 0.0, 0.0, 0.0, 0.0, 1.677182205351423E9, 0.0, 2023-02-23 11:56:45.351
223.0, 16691.075765022728, 16727.73262592943, 0.0, 0.0, 0.0, 0.0, 0.0, 0.0, 0.678, 0.626, -0.376, 192.0, 0.0, 0.0, 0.0, 0.0, 0.0, 0.0, 0.0, 0.0, 0.0, 1.677182205351441E9, 0.0, 2023-02-23 11:56:45.351
224.0, 16685.644291120087, 16720.13303281463, 0.0, 0.0, 0.0, 0.0, 0.0, 0.0, 0.678, 0.626, -0.376, 192.0, 0.0, 0.0, 0.0, 0.0, 0.0, 0.0, 0.0, 0.0, 0.0, 1.677182205357438E9, 0.0, 2023-02-23 11:56:45.357
225.0, 16687.45478242097, 16724.60338170569, 0.0, 0.0, 0.0, 0.0, 0.0, 0.0, 0.678, 0.626, -0.376, 192.0, 0.0, 0.0, 0.0, 0.0, 0.0, 0.0, 0.0, 0.0, 0.0, 1.677182205365101E9, 0.0, 2023-02-23 11:56:45.365
226.0, 16691.634558634112, 16732.20297482049, 0.0, 0.0, 0.0, 0.0, 0.0, 0.0, 0.676, 0.636, -0.374, 192.0, 21.0, 32.0, 19.0, 224.0, 244.0, 80.0, 0.0, 0.0, 0.0, 1.677182205365117E9, 0.0, 2023-02-23 11:56:45.365
227.0, 16688.617073132646, 16729.006675363384, 0.0, 0.0, 0.0, 0.0, 0.0, 0.0, 0.676, 0.636, -0.374, 192.0, 0.0, 0.0, 0.0, 0.0, 0.0, 0.0, 0.0, 0.0, 0.0, 1.677182205373147E9, 0.0, 2023-02-23 11:56:45.373
228.0, 16679.83283756171, 16718.344893258203, 0.0, 0.0, 0.0, 0.0, 0.0, 0.0, 0.676, 0.636, -0.374, 192.0, 0.0, 0.0, 0.0, 0.0, 0.0, 0.0, 0.0, 0.0, 0.0, 1.677182205373161E9, 0.0, 2023-02-23 11:56:45.373
229.0, 16678.737602083398, 16715.77444264584, 0.0, 0.0, 0.0, 0.0, 0.0, 0.0, 0.676, 0.636, -0.374, 192.0, 0.0, 0.0, 0.0, 0.0, 0.0, 0.0, 0.0, 0.0, 0.0, 1.677182205382643E9, 0.0, 2023-02-23 11:56:45.382
230.0, 16686.605416131668, 16720.91534387056, 0.0, 0.0, 0.0, 0.0, 0.0, 0.0, 0.676, 0.636, -0.374, 192.0, 0.0, 0.0, 0.0, 0.0, 0.0, 0.0, 0.0, 0.0, 0.0, 1.677182205382653E9, 0.0, 2023-02-23 11:56:45.382
231.0, 16692.10394526767, 16731.35360853119, 0.0, 0.0, 0.0, 0.0, 0.0, 0.0, 0.676, 0.636, -0.374, 192.0, 0.0, 0.0, 0.0, 0.0, 0.0, 0.0, 0.0, 0.0, 0.0, 1.677182205388767E9, 0.0, 2023-02-23 11:56:45.388
232.0, 16689.91347431105, 16729.811338163774, 0.0, 0.0, 0.0, 0.0, 0.0, 0.0, 0.676, 0.636, -0.374, 192.0, 0.0, 0.0, 0.0, 0.0, 0.0, 0.0, 0.0, 0.0, 0.0, 1.677182205388785E9, 0.0, 2023-02-23 11:56:45.388
233.0, 16685.53253239781, 16727.866736396165, 0.0, 0.0, 0.0, 0.0, 0.0, 0.0, 0.676, 0.636, -0.374, 192.0, 0.0, 0.0, 0.0, 0.0, 0.0, 0.0, 0.0, 0.0, 0.0, 1.677182205395804E9, 0.0, 2023-02-23 11:56:45.395
234.0, 16682.31388119625, 16727.911439885072, 0.0, 0.0, 0.0, 0.0, 0.0, 0.0, 0.676, 0.636, -0.374, 192.0, 0.0, 0.0, 0.0, 0.0, 0.0, 0.0, 0.0, 0.0, 0.0, 1.677182205395823E9, 0.0, 2023-02-23 11:56:45.395
235.0, 16693.914436568553, 16734.05816961028, 0.0, 0.0, 0.0, 0.0, 0.0, 0.0, 0.676, 0.636, -0.374, 192.0, 0.0, 0.0, 0.0, 0.0, 0.0, 0.0, 0.0, 0.0, 0.0, 1.677182205403844E9, 0.0, 2023-02-23 11:56:45.403
236.0, 16691.34398595619, 16725.855079395187, 0.0, 0.0, 0.0, 0.0, 0.0, 0.0, 0.672, 0.636, -0.374, 192.0, 21.0, 0.0, 19.0, 224.0, 244.0, 80.0, 0.0, 0.0, 0.0, 1.677182205403865E9, 0.0, 2023-02-23 11:56:45.403
237.0, 16695.613169147156, 16717.853154880184, 0.0, 0.0, 0.0, 0.0, 0.0, 0.0, 0.672, 0.636, -0.374, 192.0, 0.0, 0.0, 0.0, 0.0, 0.0, 0.0, 0.0, 0.0, 0.0, 1.67718220541089E9, 0.0, 2023-02-23 11:56:45.410
238.0, 16697.06603253675, 16718.724872913943, 0.0, 0.0, 0.0, 0.0, 0.0, 0.0, 0.672, 0.636, -0.374, 192.0, 0.0, 0.0, 0.0, 0.0, 0.0, 0.0, 0.0, 0.0, 0.0, 1.677182205410904E9, 0.0, 2023-02-23 11:56:45.410
239.0, 16697.93775057051, 16728.179660818536, 0.0, 0.0, 0.0, 0.0, 0.0, 0.0, 0.672, 0.636, -0.374, 192.0, 0.0, 0.0, 0.0, 0.0, 0.0, 0.0, 0.0, 0.0, 0.0, 1.677182205420685E9, 0.0, 2023-02-23 11:56:45.420
240.0, 16692.68509062351, 16729.96780037496, 0.0, 0.0, 0.0, 0.0, 0.0, 0.0, 0.672, 0.636, -0.374, 192.0, 0.0, 0.0, 0.0, 0.0, 0.0, 0.0, 0.0, 0.0, 0.0, 1.6771822054207E9, 0.0, 2023-02-23 11:56:45.420
241.0, 16684.571407386233, 16723.93282937203, 0.0, 0.0, 0.0, 0.0, 0.0, 0.0, 0.672, 0.636, -0.374, 192.0, 0.0, 0.0, 0.0, 0.0, 0.0, 0.0, 0.0, 0.0, 0.0, 1.677182205425447E9, 0.0, 2023-02-23 11:56:45.425
242.0, 16676.05539274876, 16714.478041467435, 0.0, 0.0, 0.0, 0.0, 0.0, 0.0, 0.672, 0.636, -0.374, 192.0, 0.0, 0.0, 0.0, 0.0, 0.0, 0.0, 0.0, 0.0, 0.0, 1.677182205433395E9, 0.0, 2023-02-23 11:56:45.433
243.0, 16672.76968631383, 16711.862887366162, 0.0, 0.0, 0.0, 0.0, 0.0, 0.0, 0.672, 0.636, -0.374, 192.0, 0.0, 0.0, 0.0, 0.0, 0.0, 0.0, 0.0, 0.0, 0.0, 1.677182205433412E9, 0.0, 2023-02-23 11:56:45.433
244.0, 16675.451895648468, 16719.529535714333, 0.0, 0.0, 0.0, 0.0, 0.0, 0.0, 0.672, 0.636, -0.374, 192.0, 0.0, 0.0, 0.0, 0.0, 0.0, 0.0, 0.0, 0.0, 0.0, 1.677182205440429E9, 0.0, 2023-02-23 11:56:45.440
245.0, 16679.855189306163, 16724.961009616974, 0.0, 0.0, 0.0, 0.0, 0.0, 0.0, 0.67, 0.636, -0.372, 192.0, 20.0, 240.0, 19.0, 224.0, 244.0, 96.0, 0.0, 0.0, 0.0, 1.677182205440446E9, 0.0, 2023-02-23 11:56:45.440
246.0, 16679.117581739138, 16716.623808935143, 0.0, 0.0, 0.0, 0.0, 0.0, 0.0, 0.67, 0.636, -0.372, 192.0, 0.0, 0.0, 0.0, 0.0, 0.0, 0.0, 0.0, 0.0, 0.0, 1.677182205448138E9, 0.0, 2023-02-23 11:56:45.448
247.0, 16670.57921535721, 16706.49846869689, 0.0, 0.0, 0.0, 0.0, 0.0, 0.0, 0.67, 0.636, -0.372, 192.0, 0.0, 0.0, 0.0, 0.0, 0.0, 0.0, 0.0, 0.0, 0.0, 1.677182205448155E9, 0.0, 2023-02-23 11:56:45.448
248.0, 16677.82118056073, 16709.35949198717, 0.0, 0.0, 0.0, 0.0, 0.0, 0.0, 0.67, 0.636, -0.372, 192.0, 0.0, 0.0, 0.0, 0.0, 0.0, 0.0, 0.0, 0.0, 0.0, 1.677182205456011E9, 0.0, 2023-02-23 11:56:45.456
249.0, 16682.895026552087, 16712.801660633286, 0.0, 0.0, 0.0, 0.0, 0.0, 0.0, 0.67, 0.636, -0.372, 192.0, 0.0, 0.0, 0.0, 0.0, 0.0, 0.0, 0.0, 0.0, 0.0, 1.677182205456024E9, 0.0, 2023-02-23 11:56:45.456
250.0, 16681.799791073776, 16712.399329233092, 0.0, 0.0, 0.0, 0.0, 0.0, 0.0, 0.67, 0.636, -0.372, 192.0, 0.0, 0.0, 0.0, 0.0, 0.0, 0.0, 0.0, 0.0, 0.0, 1.677182205463125E9, 0.0, 2023-02-23 11:56:45.463
251.0, 16688.929997555017, 16714.433337978524, 0.0, 0.0, 0.0, 0.0, 0.0, 0.0, 0.67, 0.636, -0.372, 192.0, 0.0, 0.0, 0.0, 0.0, 0.0, 0.0, 0.0, 0.0, 0.0, 1.677182205463156E9, 0.0, 2023-02-23 11:56:45.463
252.0, 16690.69578536699, 16722.994056104908, 0.0, 0.0, 0.0, 0.0, 0.0, 0.0, 0.67, 0.636, -0.372, 192.0, 0.0, 0.0, 0.0, 0.0, 0.0, 0.0, 0.0, 0.0, 0.0, 1.677182205470703E9, 0.0, 2023-02-23 11:56:45.470
253.0, 16684.325538197227, 16717.897858369095, 0.0, 0.0, 0.0, 0.0, 0.0, 0.0, 0.67, 0.636, -0.372, 192.0, 0.0, 0.0, 0.0, 0.0, 0.0, 0.0, 0.0, 0.0, 0.0, 1.677182205470712E9, 0.0, 2023-02-23 11:56:45.470
254.0, 16679.34109918369, 16717.07084382425, 0.0, 0.0, 0.0, 0.0, 0.0, 0.0, 0.67, 0.636, -0.372, 192.0, 0.0, 0.0, 0.0, 0.0, 0.0, 0.0, 0.0, 0.0, 0.0, 1.677182205478785E9, 0.0, 2023-02-23 11:56:45.478
255.0, 16680.324575939725, 16724.424567750048, 0.0, 0.0, 0.0, 0.0, 0.0, 0.0, 0.676, 0.634, -0.372, 192.0, 21.0, 32.0, 19.0, 208.0, 244.0, 96.0, 0.0, 0.0, 0.0, 1.677182205478802E9, 0.0, 2023-02-23 11:56:45.478
0.0, 16680.324575939725, 16729.565468974768, 0.0, 0.0, 0.0, 0.0, 0.0, 0.0, 0.676, 0.634, -0.372, 192.0, 0.0, 0.0, 0.0, 0.0, 0.0, 0.0, 0.0, 0.0, 0.0, 1.677182205485705E9, 0.0, 2023-02-23 11:56:45.485
1.0, 16682.403288174068, 16724.245753794403, 0.0, 0.0, 0.0, 0.0, 0.0, 0.0, 0.676, 0.634, -0.372, 192.0, 0.0, 0.0, 0.0, 0.0, 0.0, 0.0, 0.0, 0.0, 0.0, 1.677182205492786E9, 0.0, 2023-02-23 11:56:45.492
2.0, 16683.856151563665, 16709.001864075883, 0.0, 0.0, 0.0, 0.0, 0.0, 0.0, 0.676, 0.634, -0.372, 192.0, 0.0, 0.0, 0.0, 0.0, 0.0, 0.0, 0.0, 0.0, 0.0, 1.677182205492802E9, 0.0, 2023-02-23 11:56:45.492
3.0, 16682.29152945179, 16704.598570418188, 0.0, 0.0, 0.0, 0.0, 0.0, 0.0, 0.676, 0.634, -0.372, 192.0, 0.0, 0.0, 0.0, 0.0, 0.0, 0.0, 0.0, 0.0, 0.0, 1.677182205501003E9, 0.0, 2023-02-23 11:56:45.501
4.0, 16694.182657502017, 16711.192335032505, 0.0, 0.0, 0.0, 0.0, 0.0, 0.0, 0.676, 0.634, -0.372, 192.0, 0.0, 0.0, 0.0, 0.0, 0.0, 0.0, 0.0, 0.0, 0.0, 1.677182205501014E9, 0.0, 2023-02-23 11:56:45.501
5.0, 16692.752145856877, 16713.338102500213, 0.0, 0.0, 0.0, 0.0, 0.0, 0.0, 0.676, 0.634, -0.372, 192.0, 0.0, 0.0, 0.0, 0.0, 0.0, 0.0, 0.0, 0.0, 0.0, 1.677182205508371E9, 0.0, 2023-02-23 11:56:45.508
6.0, 16676.48007589341, 16703.995073317896, 0.0, 0.0, 0.0, 0.0, 0.0, 0.0, 0.676, 0.634, -0.372, 192.0, 0.0, 0.0, 0.0, 0.0, 0.0, 0.0, 0.0, 0.0, 0.0, 1.677182205508389E9, 0.0, 2023-02-23 11:56:45.508
7.0, 16678.379974172112, 16709.247733264892, 0.0, 0.0, 0.0, 0.0, 0.0, 0.0, 0.676, 0.634, -0.372, 192.0, 0.0, 0.0, 0.0, 0.0, 0.0, 0.0, 0.0, 0.0, 0.0, 1.677182205516322E9, 0.0, 2023-02-23 11:56:45.516
8.0, 16682.91737829654, 16713.203992033483, 0.0, 0.0, 0.0, 0.0, 0.0, 0.0, 0.676, 0.634, -0.372, 192.0, 0.0, 0.0, 0.0, 0.0, 0.0, 0.0, 0.0, 0.0, 0.0, 1.67718220551633E9, 0.0, 2023-02-23 11:56:45.516
9.0, 16670.132180468107, 16705.82791636323, 0.0, 0.0, 0.0, 0.0, 0.0, 0.0, 0.672, 0.628, -0.378, 192.0, 21.0, 0.0, 19.0, 160.0, 244.0, 48.0, 0.0, 0.0, 0.0, 1.677182205522923E9, 0.0, 2023-02-23 11:56:45.522
10.0, 16671.92032002453, 16708.532477442324, 0.0, 0.0, 0.0, 0.0, 0.0, 0.0, 0.672, 0.628, -0.378, 192.0, 0.0, 0.0, 0.0, 0.0, 0.0, 0.0, 0.0, 0.0, 0.0, 1.67718220552294E9, 0.0, 2023-02-23 11:56:45.522
11.0, 16684.05731726376, 16722.390559004612, 0.0, 0.0, 0.0, 0.0, 0.0, 0.0, 0.672, 0.628, -0.378, 192.0, 0.0, 0.0, 0.0, 0.0, 0.0, 0.0, 0.0, 0.0, 0.0, 1.677182205531004E9, 0.0, 2023-02-23 11:56:45.531
12.0, 16677.73177358291, 16708.443070464502, 0.0, 0.0, 0.0, 0.0, 0.0, 0.0, 0.672, 0.628, -0.378, 192.0, 0.0, 0.0, 0.0, 0.0, 0.0, 0.0, 0.0, 0.0, 0.0, 1.677182205531019E9, 0.0, 2023-02-23 11:56:45.531
13.0, 16676.211854959947, 16703.659797151067, 0.0, 0.0, 0.0, 0.0, 0.0, 0.0, 0.672, 0.628, -0.378, 192.0, 0.0, 0.0, 0.0, 0.0, 0.0, 0.0, 0.0, 0.0, 0.0, 1.677182205538958E9, 0.0, 2023-02-23 11:56:45.538
14.0, 16682.090363751693, 16711.773480388343, 0.0, 0.0, 0.0, 0.0, 0.0, 0.0, 0.672, 0.628, -0.378, 192.0, 0.0, 0.0, 0.0, 0.0, 0.0, 0.0, 0.0, 0.0, 0.0, 1.677182205538973E9, 0.0, 2023-02-23 11:56:45.538
15.0, 16681.62097711813, 16713.986303089416, 0.0, 0.0, 0.0, 0.0, 0.0, 0.0, 0.672, 0.628, -0.378, 192.0, 0.0, 0.0, 0.0, 0.0, 0.0, 0.0, 0.0, 0.0, 0.0, 1.677182205546091E9, 0.0, 2023-02-23 11:56:45.546
16.0, 16682.44799166298, 16710.342968743204, 0.0, 0.0, 0.0, 0.0, 0.0, 0.0, 0.672, 0.628, -0.378, 192.0, 0.0, 0.0, 0.0, 0.0, 0.0, 0.0, 0.0, 0.0, 0.0, 1.677182205552636E9, 0.0, 2023-02-23 11:56:45.552
17.0, 16677.77647707182, 16710.097099554194, 0.0, 0.0, 0.0, 0.0, 0.0, 0.0, 0.672, 0.628, -0.378, 192.0, 0.0, 0.0, 0.0, 0.0, 0.0, 0.0, 0.0, 0.0, 0.0, 1.677182205552649E9, 0.0, 2023-02-23 11:56:45.552
18.0, 16670.936843268497, 16707.21372451946, 0.0, 0.0, 0.0, 0.0, 0.0, 0.0, 0.672, 0.628, -0.378, 192.0, 0.0, 0.0, 0.0, 0.0, 0.0, 0.0, 0.0, 0.0, 0.0, 1.677182205560634E9, 0.0, 2023-02-23 11:56:45.560
19.0, 16671.361526413148, 16704.755032629375, 0.0, 0.0, 0.0, 0.0, 0.0, 0.0, 0.662, 0.63, -0.378, 192.0, 20.0, 176.0, 19.0, 176.0, 244.0, 48.0, 0.0, 0.0, 0.0, 1.677182205560643E9, 0.0, 2023-02-23 11:56:45.560
20.0, 16676.010689259852, 16707.34783498619, 0.0, 0.0, 0.0, 0.0, 0.0, 0.0, 0.662, 0.63, -0.378, 192.0, 0.0, 0.0, 0.0, 0.0, 0.0, 0.0, 0.0, 0.0, 0.0, 1.677182205568505E9, 0.0, 2023-02-23 11:56:45.568
21.0, 16676.54713112678, 16710.45472746548, 0.0, 0.0, 0.0, 0.0, 0.0, 0.0, 0.662, 0.63, -0.378, 192.0, 0.0, 0.0, 0.0, 0.0, 0.0, 0.0, 0.0, 0.0, 0.0, 1.677182205568525E9, 0.0, 2023-02-23 11:56:45.568
22.0, 16671.719154324433, 16709.381843731626, 0.0, 0.0, 0.0, 0.0, 0.0, 0.0, 0.662, 0.63, -0.378, 192.0, 0.0, 0.0, 0.0, 0.0, 0.0, 0.0, 0.0, 0.0, 0.0, 1.677182205575726E9, 0.0, 2023-02-23 11:56:45.575
23.0, 16672.121485724627, 16703.07865179523, 0.0, 0.0, 0.0, 0.0, 0.0, 0.0, 0.662, 0.63, -0.378, 192.0, 0.0, 0.0, 0.0, 0.0, 0.0, 0.0, 0.0, 0.0, 0.0, 1.67718220557574E9, 0.0, 2023-02-23 11:56:45.575
24.0, 16673.149665969573, 16701.625788405632, 0.0, 0.0, 0.0, 0.0, 0.0, 0.0, 0.662, 0.63, -0.378, 192.0, 0.0, 0.0, 0.0, 0.0, 0.0, 0.0, 0.0, 0.0, 0.0, 1.677182205583206E9, 0.0, 2023-02-23 11:56:45.583
25.0, 16676.837703804697, 16697.66952963704, 0.0, 0.0, 0.0, 0.0, 0.0, 0.0, 0.662, 0.63, -0.378, 192.0, 0.0, 0.0, 0.0, 0.0, 0.0, 0.0, 0.0, 0.0, 0.0, 1.677182205583225E9, 0.0, 2023-02-23 11:56:45.583
26.0, 16680.88336955111, 16700.754070371877, 0.0, 0.0, 0.0, 0.0, 0.0, 0.0, 0.662, 0.63, -0.378, 192.0, 0.0, 0.0, 0.0, 0.0, 0.0, 0.0, 0.0, 0.0, 0.0, 1.677182205591312E9, 0.0, 2023-02-23 11:56:45.591
27.0, 16675.608357859655, 16700.95523607197, 0.0, 0.0, 0.0, 0.0, 0.0, 0.0, 0.662, 0.63, -0.378, 192.0, 0.0, 0.0, 0.0, 0.0, 0.0, 0.0, 0.0, 0.0, 0.0, 1.677182205591327E9, 0.0, 2023-02-23 11:56:45.591
28.0, 16666.19827344397, 16706.006730318873, 0.0, 0.0, 0.0, 0.0, 0.0, 0.0, 0.662, 0.63, -0.378, 192.0, 0.0, 0.0, 0.0, 0.0, 0.0, 0.0, 0.0, 0.0, 0.0, 1.677182205599239E9, 0.0, 2023-02-23 11:56:45.599
29.0, 16675.697764837478, 16711.348797243692, 0.0, 0.0, 0.0, 0.0, 0.0, 0.0, 0.674, 0.628, -0.372, 192.0, 21.0, 16.0, 19.0, 160.0, 244.0, 96.0, 0.0, 0.0, 0.0, 1.67718220559925E9, 0.0, 2023-02-23 11:56:45.599
30.0, 16674.133142725605, 16708.6442361646, 0.0, 0.0, 0.0, 0.0, 0.0, 0.0, 0.674, 0.628, -0.372, 192.0, 0.0, 0.0, 0.0, 0.0, 0.0, 0.0, 0.0, 0.0, 0.0, 1.677182205605372E9, 0.0, 2023-02-23 11:56:45.605
31.0, 16677.083572993706, 16709.761823387365, 0.0, 0.0, 0.0, 0.0, 0.0, 0.0, 0.674, 0.628, -0.372, 192.0, 0.0, 0.0, 0.0, 0.0, 0.0, 0.0, 0.0, 0.0, 0.0, 1.677182205612761E9, 0.0, 2023-02-23 11:56:45.612
32.0, 16685.845456820185, 16716.333236257226, 0.0, 0.0, 0.0, 0.0, 0.0, 0.0, 0.674, 0.628, -0.372, 192.0, 0.0, 0.0, 0.0, 0.0, 0.0, 0.0, 0.0, 0.0, 0.0, 1.677182205612798E9, 0.0, 2023-02-23 11:56:45.612
33.0, 16689.332328955214, 16721.87646888214, 0.0, 0.0, 0.0, 0.0, 0.0, 0.0, 0.674, 0.628, -0.372, 192.0, 0.0, 0.0, 0.0, 0.0, 0.0, 0.0, 0.0, 0.0, 0.0, 1.677182205620821E9, 0.0, 2023-02-23 11:56:45.620
34.0, 16686.314843453747, 16714.992131589905, 0.0, 0.0, 0.0, 0.0, 0.0, 0.0, 0.674, 0.628, -0.372, 192.0, 0.0, 0.0, 0.0, 0.0, 0.0, 0.0, 0.0, 0.0, 0.0, 1.677182205620835E9, 0.0, 2023-02-23 11:56:45.620
35.0, 16677.77647707182, 16703.480983195423, 0.0, 0.0, 0.0, 0.0, 0.0, 0.0, 0.674, 0.628, -0.372, 192.0, 0.0, 0.0, 0.0, 0.0, 0.0, 0.0, 0.0, 0.0, 0.0, 1.677182205628116E9, 0.0, 2023-02-23 11:56:45.628
36.0, 16674.803695059265, 16709.627712920632, 0.0, 0.0, 0.0, 0.0, 0.0, 0.0, 0.674, 0.628, -0.372, 192.0, 0.0, 0.0, 0.0, 0.0, 0.0, 0.0, 0.0, 0.0, 0.0, 1.677182205628131E9, 0.0, 2023-02-23 11:56:45.628
37.0, 16680.793962573287, 16714.992131589905, 0.0, 0.0, 0.0, 0.0, 0.0, 0.0, 0.674, 0.628, -0.372, 192.0, 0.0, 0.0, 0.0, 0.0, 0.0, 0.0, 0.0, 0.0, 0.0, 1.677182205635545E9, 0.0, 2023-02-23 11:56:45.635
38.0, 16681.64332886259, 16709.895933854095, 0.0, 0.0, 0.0, 0.0, 0.0, 0.0, 0.674, 0.628, -0.372, 192.0, 0.0, 0.0, 0.0, 0.0, 0.0, 0.0, 0.0, 0.0, 0.0, 1.677182205635557E9, 0.0, 2023-02-23 11:56:45.635
39.0, 16682.24682596288, 16711.88523911062, 0.0, 0.0, 0.0, 0.0, 0.0, 0.0, 0.676, 0.626, -0.376, 192.0, 21.0, 32.0, 19.0, 144.0, 244.0, 64.0, 0.0, 0.0, 0.0, 1.677182205643576E9, 0.0, 2023-02-23 11:56:45.643
40.0, 16686.493657409388, 16711.840535621708, 0.0, 0.0, 0.0, 0.0, 0.0, 0.0, 0.676, 0.626, -0.376, 192.0, 0.0, 0.0, 0.0, 0.0, 0.0, 0.0, 0.0, 0.0, 0.0, 1.677182205643588E9, 0.0, 2023-02-23 11:56:45.643
41.0, 16678.223511960925, 16713.002826333384, 0.0, 0.0, 0.0, 0.0, 0.0, 0.0, 0.676, 0.626, -0.376, 192.0, 0.0, 0.0, 0.0, 0.0, 0.0, 0.0, 0.0, 0.0, 0.0, 1.677182205651606E9, 0.0, 2023-02-23 11:56:45.651
42.0, 16673.887273536595, 16710.745300143397, 0.0, 0.0, 0.0, 0.0, 0.0, 0.0, 0.676, 0.626, -0.376, 192.0, 0.0, 0.0, 0.0, 0.0, 0.0, 0.0, 0.0, 0.0, 0.0, 1.677182205651618E9, 0.0, 2023-02-23 11:56:45.651
43.0, 16670.847436290675, 16713.829840878232, 0.0, 0.0, 0.0, 0.0, 0.0, 0.0, 0.676, 0.626, -0.376, 192.0, 0.0, 0.0, 0.0, 0.0, 0.0, 0.0, 0.0, 0.0, 0.0, 1.677182205658214E9, 0.0, 2023-02-23 11:56:45.658
44.0, 16667.11469496664, 16715.3944629901, 0.0, 0.0, 0.0, 0.0, 0.0, 0.0, 0.676, 0.626, -0.376, 192.0, 0.0, 0.0, 0.0, 0.0, 0.0, 0.0, 0.0, 0.0, 0.0, 1.677182205658229E9, 0.0, 2023-02-23 11:56:45.658
45.0, 16667.561729855744, 16711.795832132797, 0.0, 0.0, 0.0, 0.0, 0.0, 0.0, 0.676, 0.626, -0.376, 192.0, 0.0, 0.0, 0.0, 0.0, 0.0, 0.0, 0.0, 0.0, 0.0, 1.677182205665192E9, 0.0, 2023-02-23 11:56:45.665
46.0, 16668.701668822967, 16704.30799774027, 0.0, 0.0, 0.0, 0.0, 0.0, 0.0, 0.676, 0.626, -0.376, 192.0, 0.0, 0.0, 0.0, 0.0, 0.0, 0.0, 0.0, 0.0, 0.0, 1.677182205665209E9, 0.0, 2023-02-23 11:56:45.665
47.0, 16680.05635500626, 16708.107794297674, 0.0, 0.0, 0.0, 0.0, 0.0, 0.0, 0.676, 0.626, -0.376, 192.0, 0.0, 0.0, 0.0, 0.0, 0.0, 0.0, 0.0, 0.0, 0.0, 1.677182205673271E9, 0.0, 2023-02-23 11:56:45.673
48.0, 16682.783267829807, 16711.192335032505, 0.0, 0.0, 0.0, 0.0, 0.0, 0.0, 0.676, 0.626, -0.376, 192.0, 0.0, 0.0, 0.0, 0.0, 0.0, 0.0, 0.0, 0.0, 0.0, 1.677182205681293E9, 0.0, 2023-02-23 11:56:45.681
49.0, 16678.424677661023, 16709.493602453902, 0.0, 0.0, 0.0, 0.0, 0.0, 0.0, 0.676, 0.626, -0.38, 192.0, 21.0, 32.0, 19.0, 144.0, 244.0, 32.0, 0.0, 0.0, 0.0, 1.677182205681307E9, 0.0, 2023-02-23 11:56:45.681
50.0, 16682.045660262786, 16708.286608253315, 0.0, 0.0, 0.0, 0.0, 0.0, 0.0, 0.676, 0.626, -0.38, 192.0, 0.0, 0.0, 0.0, 0.0, 0.0, 0.0, 0.0, 0.0, 0.0, 1.677182205687842E9, 0.0, 2023-02-23 11:56:45.687
51.0, 16678.178808472017, 16709.672416409543, 0.0, 0.0, 0.0, 0.0, 0.0, 0.0, 0.676, 0.626, -0.38, 192.0, 0.0, 0.0, 0.0, 0.0, 0.0, 0.0, 0.0, 0.0, 0.0, 1.67718220568785E9, 0.0, 2023-02-23 11:56:45.687
52.0, 16673.149665969573, 16704.598570418188, 0.0, 0.0, 0.0, 0.0, 0.0, 0.0, 0.676, 0.626, -0.38, 192.0, 0.0, 0.0, 0.0, 0.0, 0.0, 0.0, 0.0, 0.0, 0.0, 1.677182205695825E9, 0.0, 2023-02-23 11:56:45.695
53.0, 16672.97085201393, 16699.837648849207, 0.0, 0.0, 0.0, 0.0, 0.0, 0.0, 0.676, 0.626, -0.38, 192.0, 0.0, 0.0, 0.0, 0.0, 0.0, 0.0, 0.0, 0.0, 0.0, 1.677182205695841E9, 0.0, 2023-02-23 11:56:45.695
54.0, 16675.04956424827, 16702.698672139486, 0.0, 0.0, 0.0, 0.0, 0.0, 0.0, 0.676, 0.626, -0.38, 192.0, 0.0, 0.0, 0.0, 0.0, 0.0, 0.0, 0.0, 0.0, 0.0, 1.677182205703873E9, 0.0, 2023-02-23 11:56:45.703
55.0, 16669.439276389992, 16704.620922162645, 0.0, 0.0, 0.0, 0.0, 0.0, 0.0, 0.676, 0.626, -0.38, 192.0, 0.0, 0.0, 0.0, 0.0, 0.0, 0.0, 0.0, 0.0, 0.0, 1.677182205703888E9, 0.0, 2023-02-23 11:56:45.703
56.0, 16666.600604844167, 16711.482907710422, 0.0, 0.0, 0.0, 0.0, 0.0, 0.0, 0.676, 0.626, -0.38, 192.0, 0.0, 0.0, 0.0, 0.0, 0.0, 0.0, 0.0, 0.0, 0.0, 1.677182205710989E9, 0.0, 2023-02-23 11:56:45.710
57.0, 16673.328479925214, 16713.4945647114, 0.0, 0.0, 0.0, 0.0, 0.0, 0.0, 0.676, 0.626, -0.38, 192.0, 0.0, 0.0, 0.0, 0.0, 0.0, 0.0, 0.0, 0.0, 0.0, 1.677182205711007E9, 0.0, 2023-02-23 11:56:45.711
58.0, 16678.715250338944, 16710.857058865673, 0.0, 0.0, 0.0, 0.0, 0.0, 0.0, 0.676, 0.626, -0.38, 192.0, 0.0, 0.0, 0.0, 0.0, 0.0, 0.0, 0.0, 0.0, 0.0, 1.677182205718464E9, 0.0, 2023-02-23 11:56:45.718
59.0, 16678.178808472017, 16708.800698375788, 0.0, 0.0, 0.0, 0.0, 0.0, 0.0, 0.676, 0.628, -0.372, 192.0, 21.0, 32.0, 19.0, 160.0, 244.0, 96.0, 0.0, 0.0, 0.0, 1.677182205718486E9, 0.0, 2023-02-23 11:56:45.718
60.0, 16680.168113728538, 16712.913419355562, 0.0, 0.0, 0.0, 0.0, 0.0, 0.0, 0.676, 0.628, -0.372, 192.0, 0.0, 0.0, 0.0, 0.0, 0.0, 0.0, 0.0, 0.0, 0.0, 1.677182205726511E9, 0.0, 2023-02-23 11:56:45.726
61.0, 16674.356660170157, 16708.510125697867, 0.0, 0.0, 0.0, 0.0, 0.0, 0.0, 0.676, 0.628, -0.372, 192.0, 0.0, 0.0, 0.0, 0.0, 0.0, 0.0, 0.0, 0.0, 0.0, 1.677182205726523E9, 0.0, 2023-02-23 11:56:45.726
62.0, 16681.64332886259, 16716.668512424054, 0.0, 0.0, 0.0, 0.0, 0.0, 0.0, 0.676, 0.628, -0.372, 192.0, 0.0, 0.0, 0.0, 0.0, 0.0, 0.0, 0.0, 0.0, 0.0, 1.677182205733367E9, 0.0, 2023-02-23 11:56:45.733
63.0, 16679.296395694782, 16718.233134535927, 0.0, 0.0, 0.0, 0.0, 0.0, 0.0, 0.676, 0.628, -0.372, 192.0, 0.0, 0.0, 0.0, 0.0, 0.0, 0.0, 0.0, 0.0, 0.0, 1.677182205740602E9, 0.0, 2023-02-23 11:56:45.740
64.0, 16674.02138400333, 16711.751128643886, 0.0, 0.0, 0.0, 0.0, 0.0, 0.0, 0.676, 0.628, -0.372, 192.0, 0.0, 0.0, 0.0, 0.0, 0.0, 0.0, 0.0, 0.0, 0.0, 1.67718220574062E9, 0.0, 2023-02-23 11:56:45.740
65.0, 16678.178808472017, 16703.279817495324, 0.0, 0.0, 0.0, 0.0, 0.0, 0.0, 0.676, 0.628, -0.372, 192.0, 0.0, 0.0, 0.0, 0.0, 0.0, 0.0, 0.0, 0.0, 0.0, 1.677182205748171E9, 0.0, 2023-02-23 11:56:45.748
66.0, 16685.621939375633, 16705.760861129864, 0.0, 0.0, 0.0, 0.0, 0.0, 0.0, 0.676, 0.628, -0.372, 192.0, 0.0, 0.0, 0.0, 0.0, 0.0, 0.0, 0.0, 0.0, 0.0, 1.6771822057482E9, 0.0, 2023-02-23 11:56:45.748
67.0, 16692.908608068064, 16720.401253748092, 0.0, 0.0, 0.0, 0.0, 0.0, 0.0, 0.676, 0.628, -0.372, 192.0, 0.0, 0.0, 0.0, 0.0, 0.0, 0.0, 0.0, 0.0, 0.0, 1.677182205756837E9, 0.0, 2023-02-23 11:56:45.756
68.0, 16689.466439421947, 16722.5470212158, 0.0, 0.0, 0.0, 0.0, 0.0, 0.0, 0.674, 0.626, -0.376, 192.0, 21.0, 16.0, 19.0, 144.0, 244.0, 64.0, 0.0, 0.0, 0.0, 1.677182205756855E9, 0.0, 2023-02-23 11:56:45.756
69.0, 16683.29735795228, 16715.26035252337, 0.0, 0.0, 0.0, 0.0, 0.0, 0.0, 0.674, 0.626, -0.376, 192.0, 0.0, 0.0, 0.0, 0.0, 0.0, 0.0, 0.0, 0.0, 0.0, 1.677182205763351E9, 0.0, 2023-02-23 11:56:45.763
70.0, 16683.029137018817, 16712.578143188734, 0.0, 0.0, 0.0, 0.0, 0.0, 0.0, 0.674, 0.626, -0.376, 192.0, 0.0, 0.0, 0.0, 0.0, 0.0, 0.0, 0.0, 0.0, 0.0, 1.677182205763362E9, 0.0, 2023-02-23 11:56:45.763
71.0, 16685.085497508706, 16712.198163532994, 0.0, 0.0, 0.0, 0.0, 0.0, 0.0, 0.674, 0.626, -0.376, 192.0, 0.0, 0.0, 0.0, 0.0, 0.0, 0.0, 0.0, 0.0, 0.0, 1.677182205772879E9, 0.0, 2023-02-23 11:56:45.772
72.0, 16683.945558541483, 16711.348797243692, 0.0, 0.0, 0.0, 0.0, 0.0, 0.0, 0.674, 0.626, -0.376, 192.0, 0.0, 0.0, 0.0, 0.0, 0.0, 0.0, 0.0, 0.0, 0.0, 1.677182205772892E9, 0.0, 2023-02-23 11:56:45.772
73.0, 16687.052451020772, 16713.248695522394, 0.0, 0.0, 0.0, 0.0, 0.0, 0.0, 0.674, 0.626, -0.376, 192.0, 0.0, 0.0, 0.0, 0.0, 0.0, 0.0, 0.0, 0.0, 0.0, 1.677182205779085E9, 0.0, 2023-02-23 11:56:45.779
74.0, 16685.934863798007, 16713.11458505566, 0.0, 0.0, 0.0, 0.0, 0.0, 0.0, 0.674, 0.626, -0.376, 192.0, 0.0, 0.0, 0.0, 0.0, 0.0, 0.0, 0.0, 0.0, 0.0, 1.677182205779094E9, 0.0, 2023-02-23 11:56:45.779
75.0, 16675.429543904014, 16708.01838731985, 0.0, 0.0, 0.0, 0.0, 0.0, 0.0, 0.674, 0.626, -0.376, 192.0, 0.0, 0.0, 0.0, 0.0, 0.0, 0.0, 0.0, 0.0, 0.0, 1.677182205786115E9, 0.0, 2023-02-23 11:56:45.786
76.0, 16669.595738601176, 16698.585951159712, 0.0, 0.0, 0.0, 0.0, 0.0, 0.0, 0.674, 0.626, -0.376, 192.0, 0.0, 0.0, 0.0, 0.0, 0.0, 0.0, 0.0, 0.0, 0.0, 1.677182205786131E9, 0.0, 2023-02-23 11:56:45.786
77.0, 16668.433447889503, 16697.848343592686, 0.0, 0.0, 0.0, 0.0, 0.0, 0.0, 0.674, 0.626, -0.376, 192.0, 0.0, 0.0, 0.0, 0.0, 0.0, 0.0, 0.0, 0.0, 0.0, 1.677182205793025E9, 0.0, 2023-02-23 11:56:45.793
78.0, 16675.608357859655, 16702.5422099283, 0.0, 0.0, 0.0, 0.0, 0.0, 0.0, 0.676, 0.63, -0.38, 192.0, 21.0, 32.0, 19.0, 176.0, 244.0, 32.0, 0.0, 0.0, 0.0, 1.677182205801162E9, 0.0, 2023-02-23 11:56:45.801
