%OpenBCI Raw EEG Data
%Number of channels = 8
%Sample Rate = 250 Hz
%Board = OpenBCI_GUI$BoardCytonSerial
Sample Index, EXG Channel 0, EXG Channel 1, EXG Channel 2, EXG Channel 3, EXG Channel 4, EXG Channel 5, EXG Channel 6, EXG Channel 7, Accel Channel 0, Accel Channel 1, Accel Channel 2, Other, Other, Other, Other, Other, Other, Other, Analog Channel 0, Analog Channel 1, Analog Channel 2, Timestamp, Other, Timestamp (Formatted)
208.0, 10276.147458094056, 15233.25028815869, 0.0, 0.0, 0.0, 0.0, 0.0, 0.0, 0.0, 0.0, 0.0, 192.0, 0.0, 0.0, 0.0, 0.0, 0.0, 0.0, 0.0, 0.0, 0.0, 1.677182684551631E9, 0.0, 2023-02-23 12:04:44.551
209.0, 10264.435143999475, 15243.666201074864, 0.0, 0.0, 0.0, 0.0, 0.0, 0.0, 0.0, 0.0, 0.0, 192.0, 0.0, 0.0, 0.0, 0.0, 0.0, 0.0, 0.0, 0.0, 0.0, 1.677182684551834E9, 0.0, 2023-02-23 12:04:44.551
210.0, 10271.163019080523, 15247.44364588781, 0.0, 0.0, 0.0, 0.0, 0.0, 0.0, 0.0, 0.0, 0.0, 192.0, 0.0, 0.0, 0.0, 0.0, 0.0, 0.0, 0.0, 0.0, 0.0, 1.677182684551842E9, 0.0, 2023-02-23 12:04:44.551
211.0, 10304.020083429825, 15256.361991925478, 0.0, 0.0, 0.0, 0.0, 0.0, 0.0, 0.0, 0.0, 0.0, 192.0, 0.0, 0.0, 0.0, 0.0, 0.0, 0.0, 0.0, 0.0, 0.0, 1.677182684551849E9, 0.0, 2023-02-23 12:04:44.551
212.0, 10326.863566263148, 15280.233655003745, 0.0, 0.0, 0.0, 0.0, 0.0, 0.0, 0.0, 0.0, 0.0, 192.0, 0.0, 0.0, 0.0, 0.0, 0.0, 0.0, 0.0, 0.0, 0.0, 1.677182684551856E9, 0.0, 2023-02-23 12:04:44.551
0.0, 0.0, 0.0, 0.0, 0.0, 0.0, 0.0, 0.0, 0.0, 0.47600000000000003, 0.618, -0.594, 192.0, 14.0, 224.0, 19.0, 80.0, 237.0, 112.0, 0.0, 0.0, 0.0, 1.677182684656816E9, 0.0, 2023-02-23 12:04:44.656
1.0, 12184.338233988075, 18766.055258042248, 0.0, 0.0, 0.0, 0.0, 0.0, 0.0, 0.47600000000000003, 0.618, -0.594, 192.0, 0.0, 0.0, 0.0, 0.0, 0.0, 0.0, 0.0, 0.0, 0.0, 1.677182684663107E9, 0.0, 2023-02-23 12:04:44.663
2.0, 12176.001033306246, 18751.66073461303, 0.0, 0.0, 0.0, 0.0, 0.0, 0.0, 0.47600000000000003, 0.618, -0.594, 192.0, 0.0, 0.0, 0.0, 0.0, 0.0, 0.0, 0.0, 0.0, 0.0, 1.677182684663124E9, 0.0, 2023-02-23 12:04:44.663
3.0, 12160.511274398717, 18744.731693831887, 0.0, 0.0, 0.0, 0.0, 0.0, 0.0, 0.47600000000000003, 0.618, -0.594, 192.0, 0.0, 0.0, 0.0, 0.0, 0.0, 0.0, 0.0, 0.0, 0.0, 1.677182684669986E9, 0.0, 2023-02-23 12:04:44.669
4.0, 12178.593835663061, 18756.734580604385, 0.0, 0.0, 0.0, 0.0, 0.0, 0.0, 0.47600000000000003, 0.618, -0.594, 192.0, 0.0, 0.0, 0.0, 0.0, 0.0, 0.0, 0.0, 0.0, 0.0, 1.677182684670002E9, 0.0, 2023-02-23 12:04:44.670
5.0, 12187.646292167461, 18762.881310329594, 0.0, 0.0, 0.0, 0.0, 0.0, 0.0, 0.47600000000000003, 0.618, -0.594, 192.0, 0.0, 0.0, 0.0, 0.0, 0.0, 0.0, 0.0, 0.0, 0.0, 1.677182684677021E9, 0.0, 2023-02-23 12:04:44.677
6.0, 12181.164286275422, 18761.6296126401, 0.0, 0.0, 0.0, 0.0, 0.0, 0.0, 0.47600000000000003, 0.618, -0.594, 192.0, 0.0, 0.0, 0.0, 0.0, 0.0, 0.0, 0.0, 0.0, 0.0, 1.677182684677041E9, 0.0, 2023-02-23 12:04:44.677
7.0, 12169.228454736287, 18745.245783954357, 0.0, 0.0, 0.0, 0.0, 0.0, 0.0, 0.47600000000000003, 0.618, -0.594, 192.0, 0.0, 0.0, 0.0, 0.0, 0.0, 0.0, 0.0, 0.0, 0.0, 1.677182684685273E9, 0.0, 2023-02-23 12:04:44.685
8.0, 12169.586082647573, 18750.386685179077, 0.0, 0.0, 0.0, 0.0, 0.0, 0.0, 0.41000000000000003, 0.634, -0.628, 192.0, 12.0, 208.0, 19.0, 208.0, 236.0, 96.0, 0.0, 0.0, 0.0, 1.677182684691733E9, 0.0, 2023-02-23 12:04:44.691
9.0, 12149.469512637796, 18736.305086172233, 0.0, 0.0, 0.0, 0.0, 0.0, 0.0, 0.41000000000000003, 0.634, -0.628, 192.0, 0.0, 0.0, 0.0, 0.0, 0.0, 0.0, 0.0, 0.0, 0.0, 1.677182684691749E9, 0.0, 2023-02-23 12:04:44.691
10.0, 12157.627899363983, 18733.555821604234, 0.0, 0.0, 0.0, 0.0, 0.0, 0.0, 0.41000000000000003, 0.634, -0.628, 192.0, 0.0, 0.0, 0.0, 0.0, 0.0, 0.0, 0.0, 0.0, 0.0, 1.677182684699013E9, 0.0, 2023-02-23 12:04:44.699
11.0, 12178.057393796134, 18752.13012124659, 0.0, 0.0, 0.0, 0.0, 0.0, 0.0, 0.41000000000000003, 0.634, -0.628, 192.0, 0.0, 0.0, 0.0, 0.0, 0.0, 0.0, 0.0, 0.0, 0.0, 1.677182684699024E9, 0.0, 2023-02-23 12:04:44.699
12.0, 12179.711422885826, 18758.4780166719, 0.0, 0.0, 0.0, 0.0, 0.0, 0.0, 0.41000000000000003, 0.634, -0.628, 192.0, 0.0, 0.0, 0.0, 0.0, 0.0, 0.0, 0.0, 0.0, 0.0, 1.677182684706979E9, 0.0, 2023-02-23 12:04:44.706
13.0, 12167.730887857782, 18757.203967237947, 0.0, 0.0, 0.0, 0.0, 0.0, 0.0, 0.41000000000000003, 0.634, -0.628, 192.0, 0.0, 0.0, 0.0, 0.0, 0.0, 0.0, 0.0, 0.0, 0.0, 1.677182684707047E9, 0.0, 2023-02-23 12:04:44.707
14.0, 12174.347004216554, 18760.400266695055, 0.0, 0.0, 0.0, 0.0, 0.0, 0.0, 0.41000000000000003, 0.634, -0.628, 192.0, 0.0, 0.0, 0.0, 0.0, 0.0, 0.0, 0.0, 0.0, 0.0, 1.677182684715006E9, 0.0, 2023-02-23 12:04:44.715
15.0, 12170.83778033707, 18749.917298545515, 0.0, 0.0, 0.0, 0.0, 0.0, 0.0, 0.41000000000000003, 0.634, -0.628, 192.0, 0.0, 0.0, 0.0, 0.0, 0.0, 0.0, 0.0, 0.0, 0.0, 1.677182684715022E9, 0.0, 2023-02-23 12:04:44.715
16.0, 12166.03215527918, 18738.227336195392, 0.0, 0.0, 0.0, 0.0, 0.0, 0.0, 0.41000000000000003, 0.634, -0.628, 192.0, 0.0, 0.0, 0.0, 0.0, 0.0, 0.0, 0.0, 0.0, 0.0, 1.677182684723108E9, 0.0, 2023-02-23 12:04:44.723
17.0, 12160.77949533218, 18736.260382683326, 0.0, 0.0, 0.0, 0.0, 0.0, 0.0, 0.374, 0.646, -0.646, 192.0, 11.0, 176.0, 20.0, 48.0, 235.0, 208.0, 0.0, 0.0, 0.0, 1.677182684723134E9, 0.0, 2023-02-23 12:04:44.723
18.0, 12160.935957543368, 18744.195251964957, 0.0, 0.0, 0.0, 0.0, 0.0, 0.0, 0.374, 0.646, -0.646, 192.0, 0.0, 0.0, 0.0, 0.0, 0.0, 0.0, 0.0, 0.0, 0.0, 1.677182684729605E9, 0.0, 2023-02-23 12:04:44.729
19.0, 12168.64730938045, 18750.52079564581, 0.0, 0.0, 0.0, 0.0, 0.0, 0.0, 0.374, 0.646, -0.646, 192.0, 0.0, 0.0, 0.0, 0.0, 0.0, 0.0, 0.0, 0.0, 0.0, 1.677182684729618E9, 0.0, 2023-02-23 12:04:44.729
20.0, 12171.284815226176, 18741.89302228606, 0.0, 0.0, 0.0, 0.0, 0.0, 0.0, 0.374, 0.646, -0.646, 192.0, 0.0, 0.0, 0.0, 0.0, 0.0, 0.0, 0.0, 0.0, 0.0, 1.67718268473757E9, 0.0, 2023-02-23 12:04:44.737
21.0, 12159.572501131595, 18734.4722431269, 0.0, 0.0, 0.0, 0.0, 0.0, 0.0, 0.374, 0.646, -0.646, 192.0, 0.0, 0.0, 0.0, 0.0, 0.0, 0.0, 0.0, 0.0, 0.0, 1.677182684737582E9, 0.0, 2023-02-23 12:04:44.737
22.0, 12163.908739555925, 18739.501385629344, 0.0, 0.0, 0.0, 0.0, 0.0, 0.0, 0.374, 0.646, -0.646, 192.0, 0.0, 0.0, 0.0, 0.0, 0.0, 0.0, 0.0, 0.0, 0.0, 1.677182684744789E9, 0.0, 2023-02-23 12:04:44.744
23.0, 12174.235245494277, 18747.168033977512, 0.0, 0.0, 0.0, 0.0, 0.0, 0.0, 0.374, 0.646, -0.646, 192.0, 0.0, 0.0, 0.0, 0.0, 0.0, 0.0, 0.0, 0.0, 0.0, 1.677182684752736E9, 0.0, 2023-02-23 12:04:44.752
24.0, 12167.574425646595, 18754.253536969845, 0.0, 0.0, 0.0, 0.0, 0.0, 0.0, 0.374, 0.646, -0.646, 192.0, 0.0, 0.0, 0.0, 0.0, 0.0, 0.0, 0.0, 0.0, 0.0, 1.677182684752752E9, 0.0, 2023-02-23 12:04:44.752
25.0, 12172.201236748844, 18753.873557314106, 0.0, 0.0, 0.0, 0.0, 0.0, 0.0, 0.374, 0.646, -0.646, 192.0, 0.0, 0.0, 0.0, 0.0, 0.0, 0.0, 0.0, 0.0, 0.0, 1.677182684759337E9, 0.0, 2023-02-23 12:04:44.759
26.0, 12176.381012961987, 18755.125255003604, 0.0, 0.0, 0.0, 0.0, 0.0, 0.0, 0.374, 0.646, -0.646, 192.0, 0.0, 0.0, 0.0, 0.0, 0.0, 0.0, 0.0, 0.0, 0.0, 1.677182684759368E9, 0.0, 2023-02-23 12:04:44.759
27.0, 12177.297434484653, 18750.18551947898, 0.0, 0.0, 0.0, 0.0, 0.0, 0.0, 0.36, 0.656, -0.66, 192.0, 11.0, 64.0, 20.0, 128.0, 235.0, 96.0, 0.0, 0.0, 0.0, 1.677182684767326E9, 0.0, 2023-02-23 12:04:44.767
28.0, 12180.158457774933, 18752.398342180055, 0.0, 0.0, 0.0, 0.0, 0.0, 0.0, 0.36, 0.656, -0.66, 192.0, 0.0, 0.0, 0.0, 0.0, 0.0, 0.0, 0.0, 0.0, 0.0, 1.677182684767345E9, 0.0, 2023-02-23 12:04:44.767
29.0, 12179.107925785533, 18757.539243404775, 0.0, 0.0, 0.0, 0.0, 0.0, 0.0, 0.36, 0.656, -0.66, 192.0, 0.0, 0.0, 0.0, 0.0, 0.0, 0.0, 0.0, 0.0, 0.0, 1.677182684775377E9, 0.0, 2023-02-23 12:04:44.775
30.0, 12183.622978165506, 18758.94740330546, 0.0, 0.0, 0.0, 0.0, 0.0, 0.0, 0.36, 0.656, -0.66, 192.0, 0.0, 0.0, 0.0, 0.0, 0.0, 0.0, 0.0, 0.0, 0.0, 1.677182684775427E9, 0.0, 2023-02-23 12:04:44.775
31.0, 12184.472344454807, 18750.18551947898, 0.0, 0.0, 0.0, 0.0, 0.0, 0.0, 0.36, 0.656, -0.66, 192.0, 0.0, 0.0, 0.0, 0.0, 0.0, 0.0, 0.0, 0.0, 0.0, 1.677182684782553E9, 0.0, 2023-02-23 12:04:44.782
32.0, 12180.761954875226, 18749.67142935651, 0.0, 0.0, 0.0, 0.0, 0.0, 0.0, 0.36, 0.656, -0.66, 192.0, 0.0, 0.0, 0.0, 0.0, 0.0, 0.0, 0.0, 0.0, 0.0, 1.677182684782566E9, 0.0, 2023-02-23 12:04:44.782
33.0, 12172.983547804779, 18747.123330488605, 0.0, 0.0, 0.0, 0.0, 0.0, 0.0, 0.36, 0.656, -0.66, 192.0, 0.0, 0.0, 0.0, 0.0, 0.0, 0.0, 0.0, 0.0, 0.0, 1.677182684789981E9, 0.0, 2023-02-23 12:04:44.789
34.0, 12167.216797735311, 18743.03296125328, 0.0, 0.0, 0.0, 0.0, 0.0, 0.0, 0.36, 0.656, -0.66, 192.0, 0.0, 0.0, 0.0, 0.0, 0.0, 0.0, 0.0, 0.0, 0.0, 1.67718268478999E9, 0.0, 2023-02-23 12:04:44.789
35.0, 12171.307166970631, 18748.732656089385, 0.0, 0.0, 0.0, 0.0, 0.0, 0.0, 0.36, 0.656, -0.66, 192.0, 0.0, 0.0, 0.0, 0.0, 0.0, 0.0, 0.0, 0.0, 0.0, 1.677182684797889E9, 0.0, 2023-02-23 12:04:44.797
36.0, 12180.873713597503, 18753.292411958268, 0.0, 0.0, 0.0, 0.0, 0.0, 0.0, 0.36, 0.656, -0.66, 192.0, 0.0, 0.0, 0.0, 0.0, 0.0, 0.0, 0.0, 0.0, 0.0, 1.67718268479791E9, 0.0, 2023-02-23 12:04:44.797
37.0, 12181.276044997698, 18754.52175790331, 0.0, 0.0, 0.0, 0.0, 0.0, 0.0, 0.354, 0.66, -0.664, 192.0, 11.0, 16.0, 20.0, 160.0, 235.0, 64.0, 0.0, 0.0, 0.0, 1.677182684805183E9, 0.0, 2023-02-23 12:04:44.805
38.0, 12172.983547804779, 18742.60827810863, 0.0, 0.0, 0.0, 0.0, 0.0, 0.0, 0.354, 0.66, -0.664, 192.0, 0.0, 0.0, 0.0, 0.0, 0.0, 0.0, 0.0, 0.0, 0.0, 1.677182684811651E9, 0.0, 2023-02-23 12:04:44.811
39.0, 12164.646347122949, 18735.589830349665, 0.0, 0.0, 0.0, 0.0, 0.0, 0.0, 0.354, 0.66, -0.664, 192.0, 0.0, 0.0, 0.0, 0.0, 0.0, 0.0, 0.0, 0.0, 0.0, 1.677182684811672E9, 0.0, 2023-02-23 12:04:44.811
40.0, 12170.614262892517, 18741.28952518577, 0.0, 0.0, 0.0, 0.0, 0.0, 0.0, 0.354, 0.66, -0.664, 192.0, 0.0, 0.0, 0.0, 0.0, 0.0, 0.0, 0.0, 0.0, 0.0, 1.677182684819681E9, 0.0, 2023-02-23 12:04:44.819
41.0, 12188.093327056567, 18754.275888714303, 0.0, 0.0, 0.0, 0.0, 0.0, 0.0, 0.354, 0.66, -0.664, 192.0, 0.0, 0.0, 0.0, 0.0, 0.0, 0.0, 0.0, 0.0, 0.0, 1.677182684819695E9, 0.0, 2023-02-23 12:04:44.819
42.0, 12192.250751525255, 18757.829816082696, 0.0, 0.0, 0.0, 0.0, 0.0, 0.0, 0.354, 0.66, -0.664, 192.0, 0.0, 0.0, 0.0, 0.0, 0.0, 0.0, 0.0, 0.0, 0.0, 1.677182684827674E9, 0.0, 2023-02-23 12:04:44.827
43.0, 12180.605492664039, 18750.09611250116, 0.0, 0.0, 0.0, 0.0, 0.0, 0.0, 0.354, 0.66, -0.664, 192.0, 0.0, 0.0, 0.0, 0.0, 0.0, 0.0, 0.0, 0.0, 0.0, 1.677182684827691E9, 0.0, 2023-02-23 12:04:44.827
44.0, 12172.067126282112, 18739.769606562808, 0.0, 0.0, 0.0, 0.0, 0.0, 0.0, 0.354, 0.66, -0.664, 192.0, 0.0, 0.0, 0.0, 0.0, 0.0, 0.0, 0.0, 0.0, 0.0, 1.677182684835602E9, 0.0, 2023-02-23 12:04:44.835
45.0, 12183.019481065212, 18750.498443901353, 0.0, 0.0, 0.0, 0.0, 0.0, 0.0, 0.354, 0.66, -0.664, 192.0, 0.0, 0.0, 0.0, 0.0, 0.0, 0.0, 0.0, 0.0, 0.0, 1.677182684835614E9, 0.0, 2023-02-23 12:04:44.835
46.0, 12188.428603223396, 18756.71222885993, 0.0, 0.0, 0.0, 0.0, 0.0, 0.0, 0.354, 0.66, -0.664, 192.0, 0.0, 0.0, 0.0, 0.0, 0.0, 0.0, 0.0, 0.0, 0.0, 1.677182684842201E9, 0.0, 2023-02-23 12:04:44.842
47.0, 12178.146800773955, 18752.800673580252, 0.0, 0.0, 0.0, 0.0, 0.0, 0.0, 0.356, 0.664, -0.666, 192.0, 11.0, 32.0, 20.0, 192.0, 235.0, 48.0, 0.0, 0.0, 0.0, 1.677182684842273E9, 0.0, 2023-02-23 12:04:44.842
48.0, 12179.21968450781, 18748.442083411468, 0.0, 0.0, 0.0, 0.0, 0.0, 0.0, 0.356, 0.664, -0.666, 192.0, 0.0, 0.0, 0.0, 0.0, 0.0, 0.0, 0.0, 0.0, 0.0, 1.67718268485022E9, 0.0, 2023-02-23 12:04:44.850
49.0, 12173.609396649528, 18744.061141498227, 0.0, 0.0, 0.0, 0.0, 0.0, 0.0, 0.356, 0.664, -0.666, 192.0, 0.0, 0.0, 0.0, 0.0, 0.0, 0.0, 0.0, 0.0, 0.0, 1.677182684850241E9, 0.0, 2023-02-23 12:04:44.850
50.0, 12176.470419939807, 18746.09515024366, 0.0, 0.0, 0.0, 0.0, 0.0, 0.0, 0.356, 0.664, -0.666, 192.0, 0.0, 0.0, 0.0, 0.0, 0.0, 0.0, 0.0, 0.0, 0.0, 1.677182684858269E9, 0.0, 2023-02-23 12:04:44.858
51.0, 12185.053489810645, 18752.95713579144, 0.0, 0.0, 0.0, 0.0, 0.0, 0.0, 0.356, 0.664, -0.666, 192.0, 0.0, 0.0, 0.0, 0.0, 0.0, 0.0, 0.0, 0.0, 0.0, 1.677182684858287E9, 0.0, 2023-02-23 12:04:44.858
52.0, 12188.36154799003, 18757.583946893687, 0.0, 0.0, 0.0, 0.0, 0.0, 0.0, 0.356, 0.664, -0.666, 192.0, 0.0, 0.0, 0.0, 0.0, 0.0, 0.0, 0.0, 0.0, 0.0, 1.677182684864256E9, 0.0, 2023-02-23 12:04:44.864
53.0, 12182.17011477591, 18755.929917803995, 0.0, 0.0, 0.0, 0.0, 0.0, 0.0, 0.356, 0.664, -0.666, 192.0, 0.0, 0.0, 0.0, 0.0, 0.0, 0.0, 0.0, 0.0, 0.0, 1.677182684871896E9, 0.0, 2023-02-23 12:04:44.871
54.0, 12189.993225335267, 18760.020287039315, 0.0, 0.0, 0.0, 0.0, 0.0, 0.0, 0.356, 0.664, -0.666, 192.0, 0.0, 0.0, 0.0, 0.0, 0.0, 0.0, 0.0, 0.0, 0.0, 1.677182684871911E9, 0.0, 2023-02-23 12:04:44.871
55.0, 12200.498545229262, 18763.79773185226, 0.0, 0.0, 0.0, 0.0, 0.0, 0.0, 0.356, 0.664, -0.666, 192.0, 0.0, 0.0, 0.0, 0.0, 0.0, 0.0, 0.0, 0.0, 0.0, 1.677182684879831E9, 0.0, 2023-02-23 12:04:44.879
56.0, 12193.837725381582, 18754.23118522539, 0.0, 0.0, 0.0, 0.0, 0.0, 0.0, 0.356, 0.664, -0.666, 192.0, 0.0, 0.0, 0.0, 0.0, 0.0, 0.0, 0.0, 0.0, 0.0, 1.677182684879839E9, 0.0, 2023-02-23 12:04:44.879
57.0, 12185.187600277377, 18754.745275347865, 0.0, 0.0, 0.0, 0.0, 0.0, 0.0, 0.34, 0.67, -0.664, 192.0, 10.0, 160.0, 20.0, 240.0, 235.0, 64.0, 0.0, 0.0, 0.0, 1.677182684887826E9, 0.0, 2023-02-23 12:04:44.887
58.0, 12188.36154799003, 18761.741371362376, 0.0, 0.0, 0.0, 0.0, 0.0, 0.0, 0.34, 0.67, -0.664, 192.0, 0.0, 0.0, 0.0, 0.0, 0.0, 0.0, 0.0, 0.0, 0.0, 1.677182684887845E9, 0.0, 2023-02-23 12:04:44.887
59.0, 12193.658911425939, 18761.115522517626, 0.0, 0.0, 0.0, 0.0, 0.0, 0.0, 0.34, 0.67, -0.664, 192.0, 0.0, 0.0, 0.0, 0.0, 0.0, 0.0, 0.0, 0.0, 0.0, 1.677182684894424E9, 0.0, 2023-02-23 12:04:44.894
60.0, 12195.916437615924, 18753.985316036382, 0.0, 0.0, 0.0, 0.0, 0.0, 0.0, 0.34, 0.67, -0.664, 192.0, 0.0, 0.0, 0.0, 0.0, 0.0, 0.0, 0.0, 0.0, 0.0, 1.677182684894448E9, 0.0, 2023-02-23 12:04:44.894
61.0, 12198.620998695016, 18758.165092249525, 0.0, 0.0, 0.0, 0.0, 0.0, 0.0, 0.34, 0.67, -0.664, 192.0, 0.0, 0.0, 0.0, 0.0, 0.0, 0.0, 0.0, 0.0, 0.0, 1.677182684902508E9, 0.0, 2023-02-23 12:04:44.902
62.0, 12200.789117907181, 18763.753028363353, 0.0, 0.0, 0.0, 0.0, 0.0, 0.0, 0.34, 0.67, -0.664, 192.0, 0.0, 0.0, 0.0, 0.0, 0.0, 0.0, 0.0, 0.0, 0.0, 1.677182684902523E9, 0.0, 2023-02-23 12:04:44.902
63.0, 12198.330426017097, 18757.315725960223, 0.0, 0.0, 0.0, 0.0, 0.0, 0.0, 0.34, 0.67, -0.664, 192.0, 0.0, 0.0, 0.0, 0.0, 0.0, 0.0, 0.0, 0.0, 0.0, 1.677182684910609E9, 0.0, 2023-02-23 12:04:44.910
64.0, 12196.877562627502, 18757.338077704677, 0.0, 0.0, 0.0, 0.0, 0.0, 0.0, 0.34, 0.67, -0.664, 192.0, 0.0, 0.0, 0.0, 0.0, 0.0, 0.0, 0.0, 0.0, 0.0, 1.67718268491066E9, 0.0, 2023-02-23 12:04:44.910
65.0, 12201.45967024084, 18759.685010872487, 0.0, 0.0, 0.0, 0.0, 0.0, 0.0, 0.34, 0.67, -0.664, 192.0, 0.0, 0.0, 0.0, 0.0, 0.0, 0.0, 0.0, 0.0, 0.0, 1.677182684917673E9, 0.0, 2023-02-23 12:04:44.917
66.0, 12192.004882336245, 18756.958098048937, 0.0, 0.0, 0.0, 0.0, 0.0, 0.0, 0.34, 0.67, -0.664, 192.0, 0.0, 0.0, 0.0, 0.0, 0.0, 0.0, 0.0, 0.0, 0.0, 1.677182684917684E9, 0.0, 2023-02-23 12:04:44.917
67.0, 12185.03113806619, 18755.19231023697, 0.0, 0.0, 0.0, 0.0, 0.0, 0.0, 0.336, 0.67, -0.67, 192.0, 10.0, 128.0, 20.0, 240.0, 235.0, 16.0, 0.0, 0.0, 0.0, 1.677182684924233E9, 0.0, 2023-02-23 12:04:44.924
68.0, 12180.493733941763, 18747.480958399887, 0.0, 0.0, 0.0, 0.0, 0.0, 0.0, 0.336, 0.67, -0.67, 192.0, 0.0, 0.0, 0.0, 0.0, 0.0, 0.0, 0.0, 0.0, 0.0, 1.677182684924243E9, 0.0, 2023-02-23 12:04:44.924
69.0, 12183.444164209863, 18746.072798499205, 0.0, 0.0, 0.0, 0.0, 0.0, 0.0, 0.336, 0.67, -0.67, 192.0, 0.0, 0.0, 0.0, 0.0, 0.0, 0.0, 0.0, 0.0, 0.0, 1.677182684932286E9, 0.0, 2023-02-23 12:04:44.932
70.0, 12191.647254424961, 18755.66169687053, 0.0, 0.0, 0.0, 0.0, 0.0, 0.0, 0.336, 0.67, -0.67, 192.0, 0.0, 0.0, 0.0, 0.0, 0.0, 0.0, 0.0, 0.0, 0.0, 1.677182684940142E9, 0.0, 2023-02-23 12:04:44.940
71.0, 12193.390690492475, 18757.941574804972, 0.0, 0.0, 0.0, 0.0, 0.0, 0.0, 0.336, 0.67, -0.67, 192.0, 0.0, 0.0, 0.0, 0.0, 0.0, 0.0, 0.0, 0.0, 0.0, 1.67718268494016E9, 0.0, 2023-02-23 12:04:44.940
72.0, 12193.949484103858, 18761.450798684455, 0.0, 0.0, 0.0, 0.0, 0.0, 0.0, 0.336, 0.67, -0.67, 192.0, 0.0, 0.0, 0.0, 0.0, 0.0, 0.0, 0.0, 0.0, 0.0, 1.677182684947261E9, 0.0, 2023-02-23 12:04:44.947
73.0, 12188.920341601413, 18757.271022471312, 0.0, 0.0, 0.0, 0.0, 0.0, 0.0, 0.336, 0.67, -0.67, 192.0, 0.0, 0.0, 0.0, 0.0, 0.0, 0.0, 0.0, 0.0, 0.0, 1.677182684947276E9, 0.0, 2023-02-23 12:04:44.947
74.0, 12189.121507301512, 18755.728752103896, 0.0, 0.0, 0.0, 0.0, 0.0, 0.0, 0.336, 0.67, -0.67, 192.0, 0.0, 0.0, 0.0, 0.0, 0.0, 0.0, 0.0, 0.0, 0.0, 1.677182684954832E9, 0.0, 2023-02-23 12:04:44.954
75.0, 12199.31390277313, 18767.441066198477, 0.0, 0.0, 0.0, 0.0, 0.0, 0.0, 0.336, 0.67, -0.67, 192.0, 0.0, 0.0, 0.0, 0.0, 0.0, 0.0, 0.0, 0.0, 0.0, 1.677182684954847E9, 0.0, 2023-02-23 12:04:44.954
76.0, 12220.995094894779, 18784.160171051048, 0.0, 0.0, 0.0, 0.0, 0.0, 0.0, 0.336, 0.67, -0.67, 192.0, 0.0, 0.0, 0.0, 0.0, 0.0, 0.0, 0.0, 0.0, 0.0, 1.677182684962739E9, 0.0, 2023-02-23 12:04:44.962
77.0, 12223.163214106944, 18784.450743728965, 0.0, 0.0, 0.0, 0.0, 0.0, 0.0, 0.34, 0.666, -0.67, 192.0, 10.0, 160.0, 20.0, 208.0, 235.0, 16.0, 0.0, 0.0, 0.0, 1.67718268496275E9, 0.0, 2023-02-23 12:04:44.962
78.0, 12194.50827771524, 18762.00959229584, 0.0, 0.0, 0.0, 0.0, 0.0, 0.0, 0.34, 0.666, -0.67, 192.0, 0.0, 0.0, 0.0, 0.0, 0.0, 0.0, 0.0, 0.0, 0.0, 1.677182684970706E9, 0.0, 2023-02-23 12:04:44.970
79.0, 12188.98739683478, 18764.758856863842, 0.0, 0.0, 0.0, 0.0, 0.0, 0.0, 0.34, 0.666, -0.67, 192.0, 0.0, 0.0, 0.0, 0.0, 0.0, 0.0, 0.0, 0.0, 0.0, 1.677182684970715E9, 0.0, 2023-02-23 12:04:44.970
80.0, 12196.765803905226, 18773.654851157055, 0.0, 0.0, 0.0, 0.0, 0.0, 0.0, 0.34, 0.666, -0.67, 192.0, 0.0, 0.0, 0.0, 0.0, 0.0, 0.0, 0.0, 0.0, 0.0, 1.67718268497731E9, 0.0, 2023-02-23 12:04:44.977
81.0, 12205.751205176259, 18785.836551885193, 0.0, 0.0, 0.0, 0.0, 0.0, 0.0, 0.34, 0.666, -0.67, 192.0, 0.0, 0.0, 0.0, 0.0, 0.0, 0.0, 0.0, 0.0, 0.0, 1.67718268497734E9, 0.0, 2023-02-23 12:04:44.977
82.0, 12197.70457717235, 18784.942482106984, 0.0, 0.0, 0.0, 0.0, 0.0, 0.0, 0.34, 0.666, -0.67, 192.0, 0.0, 0.0, 0.0, 0.0, 0.0, 0.0, 0.0, 0.0, 0.0, 1.677182684985448E9, 0.0, 2023-02-23 12:04:44.985
83.0, 12192.116641058523, 18780.829761127206, 0.0, 0.0, 0.0, 0.0, 0.0, 0.0, 0.34, 0.666, -0.67, 192.0, 0.0, 0.0, 0.0, 0.0, 0.0, 0.0, 0.0, 0.0, 0.0, 1.677182684985462E9, 0.0, 2023-02-23 12:04:44.985
84.0, 12196.408175993942, 18787.065897830238, 0.0, 0.0, 0.0, 0.0, 0.0, 0.0, 0.34, 0.666, -0.67, 192.0, 0.0, 0.0, 0.0, 0.0, 0.0, 0.0, 0.0, 0.0, 0.0, 1.677182684992457E9, 0.0, 2023-02-23 12:04:44.992
85.0, 12201.392615007475, 18789.748107164873, 0.0, 0.0, 0.0, 0.0, 0.0, 0.0, 0.34, 0.666, -0.67, 192.0, 0.0, 0.0, 0.0, 0.0, 0.0, 0.0, 0.0, 0.0, 0.0, 1.677182685000376E9, 0.0, 2023-02-23 12:04:45.000
86.0, 12209.461594755841, 18800.029909614314, 0.0, 0.0, 0.0, 0.0, 0.0, 0.0, 0.34, 0.666, -0.67, 192.0, 0.0, 0.0, 0.0, 0.0, 0.0, 0.0, 0.0, 0.0, 0.0, 1.677182685000389E9, 0.0, 2023-02-23 12:04:45.000
87.0, 12198.665702183927, 18796.699499690476, 0.0, 0.0, 0.0, 0.0, 0.0, 0.0, 0.338, 0.672, -0.666, 192.0, 10.0, 144.0, 21.0, 0.0, 235.0, 48.0, 0.0, 0.0, 0.0, 1.677182685006991E9, 0.0, 2023-02-23 12:04:45.006
88.0, 12191.714309658326, 18793.369089766635, 0.0, 0.0, 0.0, 0.0, 0.0, 0.0, 0.338, 0.672, -0.666, 192.0, 0.0, 0.0, 0.0, 0.0, 0.0, 0.0, 0.0, 0.0, 0.0, 1.677182685007001E9, 0.0, 2023-02-23 12:04:45.007
89.0, 12189.45678346834, 18786.2835867743, 0.0, 0.0, 0.0, 0.0, 0.0, 0.0, 0.338, 0.672, -0.666, 192.0, 0.0, 0.0, 0.0, 0.0, 0.0, 0.0, 0.0, 0.0, 0.0, 1.677182685015049E9, 0.0, 2023-02-23 12:04:45.015
90.0, 12181.499562442252, 18783.75783965085, 0.0, 0.0, 0.0, 0.0, 0.0, 0.0, 0.338, 0.672, -0.666, 192.0, 0.0, 0.0, 0.0, 0.0, 0.0, 0.0, 0.0, 0.0, 0.0, 1.677182685015062E9, 0.0, 2023-02-23 12:04:45.015
91.0, 12192.921303858913, 18794.777249667317, 0.0, 0.0, 0.0, 0.0, 0.0, 0.0, 0.338, 0.672, -0.666, 192.0, 0.0, 0.0, 0.0, 0.0, 0.0, 0.0, 0.0, 0.0, 0.0, 1.677182685022984E9, 0.0, 2023-02-23 12:04:45.022
92.0, 12194.284760270688, 18792.25150254387, 0.0, 0.0, 0.0, 0.0, 0.0, 0.0, 0.338, 0.672, -0.666, 192.0, 0.0, 0.0, 0.0, 0.0, 0.0, 0.0, 0.0, 0.0, 0.0, 1.677182685023006E9, 0.0, 2023-02-23 12:04:45.023
93.0, 12187.713347400826, 18781.254444271857, 0.0, 0.0, 0.0, 0.0, 0.0, 0.0, 0.338, 0.672, -0.666, 192.0, 0.0, 0.0, 0.0, 0.0, 0.0, 0.0, 0.0, 0.0, 0.0, 1.677182685029662E9, 0.0, 2023-02-23 12:04:45.029
94.0, 12186.014614822223, 18786.551807707765, 0.0, 0.0, 0.0, 0.0, 0.0, 0.0, 0.338, 0.672, -0.666, 192.0, 0.0, 0.0, 0.0, 0.0, 0.0, 0.0, 0.0, 0.0, 0.0, 1.677182685029679E9, 0.0, 2023-02-23 12:04:45.029
95.0, 12193.323635259108, 18794.598435711676, 0.0, 0.0, 0.0, 0.0, 0.0, 0.0, 0.338, 0.672, -0.666, 192.0, 0.0, 0.0, 0.0, 0.0, 0.0, 0.0, 0.0, 0.0, 0.0, 1.677182685037899E9, 0.0, 2023-02-23 12:04:45.037
96.0, 12196.497582971762, 18793.10086883317, 0.0, 0.0, 0.0, 0.0, 0.0, 0.0, 0.338, 0.672, -0.664, 192.0, 10.0, 144.0, 21.0, 0.0, 235.0, 64.0, 0.0, 0.0, 0.0, 1.677182685037915E9, 0.0, 2023-02-23 12:04:45.037
97.0, 12185.589931677572, 18778.728697148406, 0.0, 0.0, 0.0, 0.0, 0.0, 0.0, 0.338, 0.672, -0.664, 192.0, 0.0, 0.0, 0.0, 0.0, 0.0, 0.0, 0.0, 0.0, 0.0, 1.677182685045679E9, 0.0, 2023-02-23 12:04:45.045
98.0, 12184.472344454807, 18778.57223493722, 0.0, 0.0, 0.0, 0.0, 0.0, 0.0, 0.338, 0.672, -0.664, 192.0, 0.0, 0.0, 0.0, 0.0, 0.0, 0.0, 0.0, 0.0, 0.0, 1.677182685045695E9, 0.0, 2023-02-23 12:04:45.045
99.0, 12191.51314395823, 18788.183485053003, 0.0, 0.0, 0.0, 0.0, 0.0, 0.0, 0.338, 0.672, -0.664, 192.0, 0.0, 0.0, 0.0, 0.0, 0.0, 0.0, 0.0, 0.0, 0.0, 1.677182685052816E9, 0.0, 2023-02-23 12:04:45.052
100.0, 12202.063167341134, 18792.966758366438, 0.0, 0.0, 0.0, 0.0, 0.0, 0.0, 0.338, 0.672, -0.664, 192.0, 0.0, 0.0, 0.0, 0.0, 0.0, 0.0, 0.0, 0.0, 0.0, 1.67718268505924E9, 0.0, 2023-02-23 12:04:45.059
101.0, 12196.36347250503, 18790.91039787655, 0.0, 0.0, 0.0, 0.0, 0.0, 0.0, 0.338, 0.672, -0.664, 192.0, 0.0, 0.0, 0.0, 0.0, 0.0, 0.0, 0.0, 0.0, 0.0, 1.677182685059252E9, 0.0, 2023-02-23 12:04:45.059
102.0, 12195.402347493453, 18789.94927286497, 0.0, 0.0, 0.0, 0.0, 0.0, 0.0, 0.338, 0.672, -0.664, 192.0, 0.0, 0.0, 0.0, 0.0, 0.0, 0.0, 0.0, 0.0, 0.0, 1.677182685067251E9, 0.0, 2023-02-23 12:04:45.067
103.0, 12198.442184739373, 18794.374918267124, 0.0, 0.0, 0.0, 0.0, 0.0, 0.0, 0.338, 0.672, -0.664, 192.0, 0.0, 0.0, 0.0, 0.0, 0.0, 0.0, 0.0, 0.0, 0.0, 1.677182685067269E9, 0.0, 2023-02-23 12:04:45.067
104.0, 12202.577257463607, 18797.615921213142, 0.0, 0.0, 0.0, 0.0, 0.0, 0.0, 0.338, 0.672, -0.664, 192.0, 0.0, 0.0, 0.0, 0.0, 0.0, 0.0, 0.0, 0.0, 0.0, 1.67718268507536E9, 0.0, 2023-02-23 12:04:45.075
105.0, 12199.827992895604, 18791.558598465755, 0.0, 0.0, 0.0, 0.0, 0.0, 0.0, 0.338, 0.672, -0.664, 192.0, 0.0, 0.0, 0.0, 0.0, 0.0, 0.0, 0.0, 0.0, 0.0, 1.677182685075379E9, 0.0, 2023-02-23 12:04:45.075
106.0, 12197.481059727796, 18789.457534486955, 0.0, 0.0, 0.0, 0.0, 0.0, 0.0, 0.334, 0.668, -0.672, 192.0, 10.0, 112.0, 20.0, 224.0, 235.0, 0.0, 0.0, 0.0, 0.0, 1.677182685082472E9, 0.0, 2023-02-23 12:04:45.082
107.0, 12200.006806851246, 18797.504162490866, 0.0, 0.0, 0.0, 0.0, 0.0, 0.0, 0.334, 0.668, -0.672, 192.0, 0.0, 0.0, 0.0, 0.0, 0.0, 0.0, 0.0, 0.0, 0.0, 1.677182685082489E9, 0.0, 2023-02-23 12:04:45.082
108.0, 12203.180754563899, 18799.135839836104, 0.0, 0.0, 0.0, 0.0, 0.0, 0.0, 0.334, 0.668, -0.672, 192.0, 0.0, 0.0, 0.0, 0.0, 0.0, 0.0, 0.0, 0.0, 0.0, 1.677182685090009E9, 0.0, 2023-02-23 12:04:45.090
109.0, 12206.17588832091, 18798.889970647095, 0.0, 0.0, 0.0, 0.0, 0.0, 0.0, 0.334, 0.668, -0.672, 192.0, 0.0, 0.0, 0.0, 0.0, 0.0, 0.0, 0.0, 0.0, 0.0, 1.677182685090021E9, 0.0, 2023-02-23 12:04:45.090
110.0, 12202.21962955232, 18798.33117703571, 0.0, 0.0, 0.0, 0.0, 0.0, 0.0, 0.334, 0.668, -0.672, 192.0, 0.0, 0.0, 0.0, 0.0, 0.0, 0.0, 0.0, 0.0, 0.0, 1.677182685097966E9, 0.0, 2023-02-23 12:04:45.097
111.0, 12198.330426017097, 18793.033813599803, 0.0, 0.0, 0.0, 0.0, 0.0, 0.0, 0.334, 0.668, -0.672, 192.0, 0.0, 0.0, 0.0, 0.0, 0.0, 0.0, 0.0, 0.0, 0.0, 1.677182685097978E9, 0.0, 2023-02-23 12:04:45.097
112.0, 12195.916437615924, 18794.643139200587, 0.0, 0.0, 0.0, 0.0, 0.0, 0.0, 0.334, 0.668, -0.672, 192.0, 0.0, 0.0, 0.0, 0.0, 0.0, 0.0, 0.0, 0.0, 0.0, 1.677182685106036E9, 0.0, 2023-02-23 12:04:45.106
113.0, 12202.93488537489, 18798.599397969174, 0.0, 0.0, 0.0, 0.0, 0.0, 0.0, 0.334, 0.668, -0.672, 192.0, 0.0, 0.0, 0.0, 0.0, 0.0, 0.0, 0.0, 0.0, 0.0, 1.677182685106054E9, 0.0, 2023-02-23 12:04:45.106
114.0, 12192.898952114458, 18787.557636208254, 0.0, 0.0, 0.0, 0.0, 0.0, 0.0, 0.334, 0.668, -0.672, 192.0, 0.0, 0.0, 0.0, 0.0, 0.0, 0.0, 0.0, 0.0, 0.0, 1.677182685112193E9, 0.0, 2023-02-23 12:04:45.112
115.0, 12205.326522031608, 18795.514857234342, 0.0, 0.0, 0.0, 0.0, 0.0, 0.0, 0.334, 0.668, -0.672, 192.0, 0.0, 0.0, 0.0, 0.0, 0.0, 0.0, 0.0, 0.0, 0.0, 1.677182685119797E9, 0.0, 2023-02-23 12:04:45.119
116.0, 12209.282780800198, 18797.213589812945, 0.0, 0.0, 0.0, 0.0, 0.0, 0.0, 0.33, 0.666, -0.67, 192.0, 10.0, 80.0, 20.0, 208.0, 235.0, 16.0, 0.0, 0.0, 0.0, 1.677182685119874E9, 0.0, 2023-02-23 12:04:45.119
117.0, 12204.074824342111, 18794.66549094504, 0.0, 0.0, 0.0, 0.0, 0.0, 0.0, 0.33, 0.666, -0.67, 192.0, 0.0, 0.0, 0.0, 0.0, 0.0, 0.0, 0.0, 0.0, 0.0, 1.677182685127655E9, 0.0, 2023-02-23 12:04:45.127
118.0, 12188.719175901315, 18781.008575082848, 0.0, 0.0, 0.0, 0.0, 0.0, 0.0, 0.33, 0.666, -0.67, 192.0, 0.0, 0.0, 0.0, 0.0, 0.0, 0.0, 0.0, 0.0, 0.0, 1.677182685127671E9, 0.0, 2023-02-23 12:04:45.127
119.0, 12189.255617768244, 18783.936653606495, 0.0, 0.0, 0.0, 0.0, 0.0, 0.0, 0.33, 0.666, -0.67, 192.0, 0.0, 0.0, 0.0, 0.0, 0.0, 0.0, 0.0, 0.0, 0.0, 1.677182685135647E9, 0.0, 2023-02-23 12:04:45.135
120.0, 12201.906705129946, 18795.29133978979, 0.0, 0.0, 0.0, 0.0, 0.0, 0.0, 0.33, 0.666, -0.67, 192.0, 0.0, 0.0, 0.0, 0.0, 0.0, 0.0, 0.0, 0.0, 0.0, 1.677182685135663E9, 0.0, 2023-02-23 12:04:45.135
121.0, 12210.22155406732, 18802.130973593114, 0.0, 0.0, 0.0, 0.0, 0.0, 0.0, 0.33, 0.666, -0.67, 192.0, 0.0, 0.0, 0.0, 0.0, 0.0, 0.0, 0.0, 0.0, 0.0, 1.677182685142173E9, 0.0, 2023-02-23 12:04:45.142
122.0, 12208.969856377824, 18792.877351388615, 0.0, 0.0, 0.0, 0.0, 0.0, 0.0, 0.33, 0.666, -0.67, 192.0, 0.0, 0.0, 0.0, 0.0, 0.0, 0.0, 0.0, 0.0, 0.0, 1.677182685142184E9, 0.0, 2023-02-23 12:04:45.142
123.0, 12198.88921962848, 18784.271929773324, 0.0, 0.0, 0.0, 0.0, 0.0, 0.0, 0.33, 0.666, -0.67, 192.0, 0.0, 0.0, 0.0, 0.0, 0.0, 0.0, 0.0, 0.0, 0.0, 1.677182685150264E9, 0.0, 2023-02-23 12:04:45.150
124.0, 12203.359568519541, 18788.47405773092, 0.0, 0.0, 0.0, 0.0, 0.0, 0.0, 0.33, 0.666, -0.67, 192.0, 0.0, 0.0, 0.0, 0.0, 0.0, 0.0, 0.0, 0.0, 0.0, 1.677182685150295E9, 0.0, 2023-02-23 12:04:45.150
125.0, 12206.712330187838, 18793.927883378015, 0.0, 0.0, 0.0, 0.0, 0.0, 0.0, 0.33, 0.666, -0.67, 192.0, 0.0, 0.0, 0.0, 0.0, 0.0, 0.0, 0.0, 0.0, 0.0, 1.677182685158196E9, 0.0, 2023-02-23 12:04:45.158
126.0, 12198.285722528188, 18793.369089766635, 0.0, 0.0, 0.0, 0.0, 0.0, 0.0, 0.332, 0.666, -0.668, 192.0, 10.0, 96.0, 20.0, 208.0, 235.0, 32.0, 0.0, 0.0, 0.0, 1.677182685158221E9, 0.0, 2023-02-23 12:04:45.158
127.0, 12194.307112015142, 18783.24374952838, 0.0, 0.0, 0.0, 0.0, 0.0, 0.0, 0.332, 0.666, -0.668, 192.0, 0.0, 0.0, 0.0, 0.0, 0.0, 0.0, 0.0, 0.0, 0.0, 1.677182685165423E9, 0.0, 2023-02-23 12:04:45.165
128.0, 12199.64917893996, 18786.730621663406, 0.0, 0.0, 0.0, 0.0, 0.0, 0.0, 0.332, 0.666, -0.668, 192.0, 0.0, 0.0, 0.0, 0.0, 0.0, 0.0, 0.0, 0.0, 0.0, 1.677182685165439E9, 0.0, 2023-02-23 12:04:45.165
129.0, 12195.514106215729, 18789.323424020222, 0.0, 0.0, 0.0, 0.0, 0.0, 0.0, 0.332, 0.666, -0.668, 192.0, 0.0, 0.0, 0.0, 0.0, 0.0, 0.0, 0.0, 0.0, 0.0, 1.677182685173468E9, 0.0, 2023-02-23 12:04:45.173
130.0, 12199.090385328578, 18790.642176943085, 0.0, 0.0, 0.0, 0.0, 0.0, 0.0, 0.332, 0.666, -0.668, 192.0, 0.0, 0.0, 0.0, 0.0, 0.0, 0.0, 0.0, 0.0, 0.0, 1.677182685173482E9, 0.0, 2023-02-23 12:04:45.173
131.0, 12205.930019131902, 18793.25733104436, 0.0, 0.0, 0.0, 0.0, 0.0, 0.0, 0.332, 0.666, -0.668, 192.0, 0.0, 0.0, 0.0, 0.0, 0.0, 0.0, 0.0, 0.0, 0.0, 1.677182685179817E9, 0.0, 2023-02-23 12:04:45.179
132.0, 12197.592818450072, 18788.51876121983, 0.0, 0.0, 0.0, 0.0, 0.0, 0.0, 0.332, 0.666, -0.668, 192.0, 0.0, 0.0, 0.0, 0.0, 0.0, 0.0, 0.0, 0.0, 0.0, 1.677182685187951E9, 0.0, 2023-02-23 12:04:45.187
133.0, 12202.331388274597, 18793.749069422374, 0.0, 0.0, 0.0, 0.0, 0.0, 0.0, 0.332, 0.666, -0.668, 192.0, 0.0, 0.0, 0.0, 0.0, 0.0, 0.0, 0.0, 0.0, 0.0, 1.677182685187992E9, 0.0, 2023-02-23 12:04:45.187
134.0, 12210.333312789597, 18796.028947356815, 0.0, 0.0, 0.0, 0.0, 0.0, 0.0, 0.332, 0.666, -0.668, 192.0, 0.0, 0.0, 0.0, 0.0, 0.0, 0.0, 0.0, 0.0, 0.0, 1.677182685194452E9, 0.0, 2023-02-23 12:04:45.194
135.0, 12204.70067318686, 18795.648967701076, 0.0, 0.0, 0.0, 0.0, 0.0, 0.0, 0.332, 0.666, -0.668, 192.0, 0.0, 0.0, 0.0, 0.0, 0.0, 0.0, 0.0, 0.0, 0.0, 1.677182685194469E9, 0.0, 2023-02-23 12:04:45.194
136.0, 12196.69874867186, 18787.66939493053, 0.0, 0.0, 0.0, 0.0, 0.0, 0.0, 0.336, 0.666, -0.67, 192.0, 10.0, 128.0, 20.0, 208.0, 235.0, 16.0, 0.0, 0.0, 0.0, 1.677182685202516E9, 0.0, 2023-02-23 12:04:45.202
137.0, 12190.954350346847, 18781.366202994133, 0.0, 0.0, 0.0, 0.0, 0.0, 0.0, 0.336, 0.666, -0.67, 192.0, 0.0, 0.0, 0.0, 0.0, 0.0, 0.0, 0.0, 0.0, 0.0, 1.677182685202537E9, 0.0, 2023-02-23 12:04:45.202
138.0, 12188.674472412406, 18769.922109833016, 0.0, 0.0, 0.0, 0.0, 0.0, 0.0, 0.336, 0.666, -0.67, 192.0, 0.0, 0.0, 0.0, 0.0, 0.0, 0.0, 0.0, 0.0, 0.0, 1.677182685210578E9, 0.0, 2023-02-23 12:04:45.210
139.0, 12185.902856099947, 18767.262252242836, 0.0, 0.0, 0.0, 0.0, 0.0, 0.0, 0.336, 0.666, -0.67, 192.0, 0.0, 0.0, 0.0, 0.0, 0.0, 0.0, 0.0, 0.0, 0.0, 1.677182685210595E9, 0.0, 2023-02-23 12:04:45.210
140.0, 12194.17300154841, 18776.649984914064, 0.0, 0.0, 0.0, 0.0, 0.0, 0.0, 0.336, 0.666, -0.67, 192.0, 0.0, 0.0, 0.0, 0.0, 0.0, 0.0, 0.0, 0.0, 0.0, 1.67718268521776E9, 0.0, 2023-02-23 12:04:45.217
141.0, 12193.189524792377, 18783.087287317194, 0.0, 0.0, 0.0, 0.0, 0.0, 0.0, 0.336, 0.666, -0.67, 192.0, 0.0, 0.0, 0.0, 0.0, 0.0, 0.0, 0.0, 0.0, 0.0, 1.677182685217771E9, 0.0, 2023-02-23 12:04:45.217
142.0, 12201.839649896581, 18789.39047925359, 0.0, 0.0, 0.0, 0.0, 0.0, 0.0, 0.336, 0.666, -0.67, 192.0, 0.0, 0.0, 0.0, 0.0, 0.0, 0.0, 0.0, 0.0, 0.0, 1.677182685225197E9, 0.0, 2023-02-23 12:04:45.225
143.0, 12206.913495887935, 18788.831685642206, 0.0, 0.0, 0.0, 0.0, 0.0, 0.0, 0.336, 0.666, -0.67, 192.0, 0.0, 0.0, 0.0, 0.0, 0.0, 0.0, 0.0, 0.0, 0.0, 1.677182685225211E9, 0.0, 2023-02-23 12:04:45.225
144.0, 12209.439243011386, 18787.46822923043, 0.0, 0.0, 0.0, 0.0, 0.0, 0.0, 0.336, 0.666, -0.67, 192.0, 0.0, 0.0, 0.0, 0.0, 0.0, 0.0, 0.0, 0.0, 0.0, 1.677182685233135E9, 0.0, 2023-02-23 12:04:45.233
145.0, 12205.728853431805, 18791.648005443574, 0.0, 0.0, 0.0, 0.0, 0.0, 0.0, 0.336, 0.666, -0.67, 192.0, 0.0, 0.0, 0.0, 0.0, 0.0, 0.0, 0.0, 0.0, 0.0, 1.677182685233151E9, 0.0, 2023-02-23 12:04:45.233
146.0, 12199.917399873424, 18782.2826245168, 0.0, 0.0, 0.0, 0.0, 0.0, 0.0, 0.338, 0.664, -0.67, 192.0, 10.0, 144.0, 20.0, 192.0, 235.0, 16.0, 0.0, 0.0, 0.0, 1.677182685240107E9, 0.0, 2023-02-23 12:04:45.240
147.0, 12199.000978350758, 18781.232092527403, 0.0, 0.0, 0.0, 0.0, 0.0, 0.0, 0.338, 0.664, -0.67, 192.0, 0.0, 0.0, 0.0, 0.0, 0.0, 0.0, 0.0, 0.0, 0.0, 1.677182685247316E9, 0.0, 2023-02-23 12:04:45.247
148.0, 12201.213801051832, 18783.646080928575, 0.0, 0.0, 0.0, 0.0, 0.0, 0.0, 0.338, 0.664, -0.67, 192.0, 0.0, 0.0, 0.0, 0.0, 0.0, 0.0, 0.0, 0.0, 0.0, 1.677182685247334E9, 0.0, 2023-02-23 12:04:45.247
149.0, 12205.572391220618, 18781.589720438686, 0.0, 0.0, 0.0, 0.0, 0.0, 0.0, 0.338, 0.664, -0.67, 192.0, 0.0, 0.0, 0.0, 0.0, 0.0, 0.0, 0.0, 0.0, 0.0, 1.677182685254822E9, 0.0, 2023-02-23 12:04:45.254
150.0, 12211.383844778997, 18789.010499597847, 0.0, 0.0, 0.0, 0.0, 0.0, 0.0, 0.338, 0.664, -0.67, 192.0, 0.0, 0.0, 0.0, 0.0, 0.0, 0.0, 0.0, 0.0, 0.0, 1.677182685254878E9, 0.0, 2023-02-23 12:04:45.254
151.0, 12218.826975682614, 18794.084345589203, 0.0, 0.0, 0.0, 0.0, 0.0, 0.0, 0.338, 0.664, -0.67, 192.0, 0.0, 0.0, 0.0, 0.0, 0.0, 0.0, 0.0, 0.0, 0.0, 1.677182685262806E9, 0.0, 2023-02-23 12:04:45.262
152.0, 12217.597629737573, 18791.178618810012, 0.0, 0.0, 0.0, 0.0, 0.0, 0.0, 0.338, 0.664, -0.67, 192.0, 0.0, 0.0, 0.0, 0.0, 0.0, 0.0, 0.0, 0.0, 0.0, 1.67718268526282E9, 0.0, 2023-02-23 12:04:45.262
153.0, 12205.594742965073, 18783.489618717387, 0.0, 0.0, 0.0, 0.0, 0.0, 0.0, 0.338, 0.664, -0.67, 192.0, 0.0, 0.0, 0.0, 0.0, 0.0, 0.0, 0.0, 0.0, 0.0, 1.677182685270769E9, 0.0, 2023-02-23 12:04:45.270
154.0, 12190.663777668928, 18770.503255188854, 0.0, 0.0, 0.0, 0.0, 0.0, 0.0, 0.338, 0.664, -0.67, 192.0, 0.0, 0.0, 0.0, 0.0, 0.0, 0.0, 0.0, 0.0, 0.0, 1.677182685270786E9, 0.0, 2023-02-23 12:04:45.270
155.0, 12191.13316430249, 18769.966813321927, 0.0, 0.0, 0.0, 0.0, 0.0, 0.0, 0.338, 0.664, -0.67, 192.0, 0.0, 0.0, 0.0, 0.0, 0.0, 0.0, 0.0, 0.0, 0.0, 1.677182685277365E9, 0.0, 2023-02-23 12:04:45.277
156.0, 12201.727891174305, 18775.040659313283, 0.0, 0.0, 0.0, 0.0, 0.0, 0.0, 0.336, 0.664, -0.664, 192.0, 10.0, 128.0, 20.0, 192.0, 235.0, 64.0, 0.0, 0.0, 0.0, 1.677182685277373E9, 0.0, 2023-02-23 12:04:45.277
157.0, 12206.868792399026, 18780.136857049092, 0.0, 0.0, 0.0, 0.0, 0.0, 0.0, 0.336, 0.664, -0.664, 192.0, 0.0, 0.0, 0.0, 0.0, 0.0, 0.0, 0.0, 0.0, 0.0, 1.677182685285404E9, 0.0, 2023-02-23 12:04:45.285
158.0, 12203.784251664192, 18783.82489488422, 0.0, 0.0, 0.0, 0.0, 0.0, 0.0, 0.336, 0.664, -0.664, 192.0, 0.0, 0.0, 0.0, 0.0, 0.0, 0.0, 0.0, 0.0, 0.0, 1.677182685285423E9, 0.0, 2023-02-23 12:04:45.285
159.0, 12209.327484289108, 18780.203912282457, 0.0, 0.0, 0.0, 0.0, 0.0, 0.0, 0.336, 0.664, -0.664, 192.0, 0.0, 0.0, 0.0, 0.0, 0.0, 0.0, 0.0, 0.0, 0.0, 1.677182685293429E9, 0.0, 2023-02-23 12:04:45.293
160.0, 12214.066054113633, 18783.444915228476, 0.0, 0.0, 0.0, 0.0, 0.0, 0.0, 0.336, 0.664, -0.664, 192.0, 0.0, 0.0, 0.0, 0.0, 0.0, 0.0, 0.0, 0.0, 0.0, 1.677182685293443E9, 0.0, 2023-02-23 12:04:45.293
161.0, 12207.427586010408, 18781.030926827305, 0.0, 0.0, 0.0, 0.0, 0.0, 0.0, 0.336, 0.664, -0.664, 192.0, 0.0, 0.0, 0.0, 0.0, 0.0, 0.0, 0.0, 0.0, 0.0, 1.677182685300597E9, 0.0, 2023-02-23 12:04:45.300
162.0, 12203.247809797265, 18767.485769687388, 0.0, 0.0, 0.0, 0.0, 0.0, 0.0, 0.336, 0.664, -0.664, 192.0, 0.0, 0.0, 0.0, 0.0, 0.0, 0.0, 0.0, 0.0, 0.0, 1.677182685307084E9, 0.0, 2023-02-23 12:04:45.307
163.0, 12208.321655788619, 18773.788961623784, 0.0, 0.0, 0.0, 0.0, 0.0, 0.0, 0.336, 0.664, -0.664, 192.0, 0.0, 0.0, 0.0, 0.0, 0.0, 0.0, 0.0, 0.0, 0.0, 1.677182685307097E9, 0.0, 2023-02-23 12:04:45.307
164.0, 12197.972798105813, 18773.81131336824, 0.0, 0.0, 0.0, 0.0, 0.0, 0.0, 0.336, 0.664, -0.664, 192.0, 0.0, 0.0, 0.0, 0.0, 0.0, 0.0, 0.0, 0.0, 0.0, 1.677182685315083E9, 0.0, 2023-02-23 12:04:45.315
165.0, 12194.620036437516, 18775.979432580403, 0.0, 0.0, 0.0, 0.0, 0.0, 0.0, 0.336, 0.664, -0.664, 192.0, 0.0, 0.0, 0.0, 0.0, 0.0, 0.0, 0.0, 0.0, 0.0, 1.677182685315095E9, 0.0, 2023-02-23 12:04:45.315
166.0, 12206.332350532097, 18780.628595427108, 0.0, 0.0, 0.0, 0.0, 0.0, 0.0, 0.332, 0.664, -0.668, 192.0, 10.0, 96.0, 20.0, 192.0, 235.0, 32.0, 0.0, 0.0, 0.0, 1.677182685323065E9, 0.0, 2023-02-23 12:04:45.323
167.0, 12203.672492941916, 18773.878368601607, 0.0, 0.0, 0.0, 0.0, 0.0, 0.0, 0.332, 0.664, -0.668, 192.0, 0.0, 0.0, 0.0, 0.0, 0.0, 0.0, 0.0, 0.0, 0.0, 1.677182685323105E9, 0.0, 2023-02-23 12:04:45.323
168.0, 12197.168135305421, 18762.590737651677, 0.0, 0.0, 0.0, 0.0, 0.0, 0.0, 0.332, 0.664, -0.668, 192.0, 0.0, 0.0, 0.0, 0.0, 0.0, 0.0, 0.0, 0.0, 0.0, 1.677182685330276E9, 0.0, 2023-02-23 12:04:45.330
169.0, 12202.59960920806, 18766.926976076007, 0.0, 0.0, 0.0, 0.0, 0.0, 0.0, 0.332, 0.664, -0.668, 192.0, 0.0, 0.0, 0.0, 0.0, 0.0, 0.0, 0.0, 0.0, 0.0, 1.677182685330296E9, 0.0, 2023-02-23 12:04:45.330
170.0, 12205.348873776064, 18771.263214500334, 0.0, 0.0, 0.0, 0.0, 0.0, 0.0, 0.332, 0.664, -0.668, 192.0, 0.0, 0.0, 0.0, 0.0, 0.0, 0.0, 0.0, 0.0, 0.0, 1.677182685338252E9, 0.0, 2023-02-23 12:04:45.338
171.0, 12212.121452346022, 18773.76660987933, 0.0, 0.0, 0.0, 0.0, 0.0, 0.0, 0.332, 0.664, -0.668, 192.0, 0.0, 0.0, 0.0, 0.0, 0.0, 0.0, 0.0, 0.0, 0.0, 1.677182685338269E9, 0.0, 2023-02-23 12:04:45.338
172.0, 12214.75895819175, 18777.275833758813, 0.0, 0.0, 0.0, 0.0, 0.0, 0.0, 0.332, 0.664, -0.668, 192.0, 0.0, 0.0, 0.0, 0.0, 0.0, 0.0, 0.0, 0.0, 0.0, 1.677182685345665E9, 0.0, 2023-02-23 12:04:45.345
173.0, 12212.635542468493, 18780.29331926028, 0.0, 0.0, 0.0, 0.0, 0.0, 0.0, 0.332, 0.664, -0.668, 192.0, 0.0, 0.0, 0.0, 0.0, 0.0, 0.0, 0.0, 0.0, 0.0, 1.677182685345682E9, 0.0, 2023-02-23 12:04:45.345
174.0, 12216.211821581343, 18781.209740782946, 0.0, 0.0, 0.0, 0.0, 0.0, 0.0, 0.332, 0.664, -0.668, 192.0, 0.0, 0.0, 0.0, 0.0, 0.0, 0.0, 0.0, 0.0, 0.0, 1.677182685353762E9, 0.0, 2023-02-23 12:04:45.353
175.0, 12223.498490273774, 18783.646080928575, 0.0, 0.0, 0.0, 0.0, 0.0, 0.0, 0.33, 0.664, -0.672, 192.0, 10.0, 80.0, 20.0, 192.0, 235.0, 0.0, 0.0, 0.0, 0.0, 1.677182685353779E9, 0.0, 2023-02-23 12:04:45.353
176.0, 12227.27593508672, 18782.662604172543, 0.0, 0.0, 0.0, 0.0, 0.0, 0.0, 0.33, 0.664, -0.672, 192.0, 0.0, 0.0, 0.0, 0.0, 0.0, 0.0, 0.0, 0.0, 0.0, 1.677182685359891E9, 0.0, 2023-02-23 12:04:45.359
177.0, 12222.89499317348, 18781.924996605518, 0.0, 0.0, 0.0, 0.0, 0.0, 0.0, 0.33, 0.664, -0.672, 192.0, 0.0, 0.0, 0.0, 0.0, 0.0, 0.0, 0.0, 0.0, 0.0, 1.67718268536725E9, 0.0, 2023-02-23 12:04:45.367
178.0, 12219.877507672014, 18785.501275718365, 0.0, 0.0, 0.0, 0.0, 0.0, 0.0, 0.33, 0.664, -0.672, 192.0, 0.0, 0.0, 0.0, 0.0, 0.0, 0.0, 0.0, 0.0, 0.0, 1.677182685367263E9, 0.0, 2023-02-23 12:04:45.367
179.0, 12225.487795530296, 18788.071726330727, 0.0, 0.0, 0.0, 0.0, 0.0, 0.0, 0.33, 0.664, -0.672, 192.0, 0.0, 0.0, 0.0, 0.0, 0.0, 0.0, 0.0, 0.0, 0.0, 1.67718268537531E9, 0.0, 2023-02-23 12:04:45.375
180.0, 12218.04466462668, 18779.06397331524, 0.0, 0.0, 0.0, 0.0, 0.0, 0.0, 0.33, 0.664, -0.672, 192.0, 0.0, 0.0, 0.0, 0.0, 0.0, 0.0, 0.0, 0.0, 0.0, 1.677182685375331E9, 0.0, 2023-02-23 12:04:45.375
181.0, 12223.789062951691, 18781.90264486106, 0.0, 0.0, 0.0, 0.0, 0.0, 0.0, 0.33, 0.664, -0.672, 192.0, 0.0, 0.0, 0.0, 0.0, 0.0, 0.0, 0.0, 0.0, 0.0, 1.677182685382565E9, 0.0, 2023-02-23 12:04:45.382
182.0, 12227.141824619988, 18787.065897830238, 0.0, 0.0, 0.0, 0.0, 0.0, 0.0, 0.33, 0.664, -0.672, 192.0, 0.0, 0.0, 0.0, 0.0, 0.0, 0.0, 0.0, 0.0, 0.0, 1.67718268538258E9, 0.0, 2023-02-23 12:04:45.382
183.0, 12227.074769386623, 18786.596511196676, 0.0, 0.0, 0.0, 0.0, 0.0, 0.0, 0.33, 0.664, -0.672, 192.0, 0.0, 0.0, 0.0, 0.0, 0.0, 0.0, 0.0, 0.0, 0.0, 1.677182685390018E9, 0.0, 2023-02-23 12:04:45.390
184.0, 12227.097121131077, 18788.630519942108, 0.0, 0.0, 0.0, 0.0, 0.0, 0.0, 0.33, 0.664, -0.672, 192.0, 0.0, 0.0, 0.0, 0.0, 0.0, 0.0, 0.0, 0.0, 0.0, 1.677182685390033E9, 0.0, 2023-02-23 12:04:45.390
185.0, 12224.593725752084, 18787.781153652806, 0.0, 0.0, 0.0, 0.0, 0.0, 0.0, 0.342, 0.666, -0.672, 192.0, 10.0, 176.0, 20.0, 208.0, 235.0, 0.0, 0.0, 0.0, 0.0, 1.677182685397995E9, 0.0, 2023-02-23 12:04:45.397
186.0, 12226.85125194207, 18792.20679905496, 0.0, 0.0, 0.0, 0.0, 0.0, 0.0, 0.342, 0.666, -0.672, 192.0, 0.0, 0.0, 0.0, 0.0, 0.0, 0.0, 0.0, 0.0, 0.0, 1.67718268539801E9, 0.0, 2023-02-23 12:04:45.398
187.0, 12229.980496165812, 18796.207761312457, 0.0, 0.0, 0.0, 0.0, 0.0, 0.0, 0.342, 0.666, -0.672, 192.0, 0.0, 0.0, 0.0, 0.0, 0.0, 0.0, 0.0, 0.0, 0.0, 1.677182685405951E9, 0.0, 2023-02-23 12:04:45.405
188.0, 12241.178720137921, 18801.572179981733, 0.0, 0.0, 0.0, 0.0, 0.0, 0.0, 0.342, 0.666, -0.672, 192.0, 0.0, 0.0, 0.0, 0.0, 0.0, 0.0, 0.0, 0.0, 0.0, 1.677182685405972E9, 0.0, 2023-02-23 12:04:45.405
189.0, 12231.90274618897, 18792.13974382159, 0.0, 0.0, 0.0, 0.0, 0.0, 0.0, 0.342, 0.666, -0.672, 192.0, 0.0, 0.0, 0.0, 0.0, 0.0, 0.0, 0.0, 0.0, 0.0, 1.677182685412569E9, 0.0, 2023-02-23 12:04:45.412
190.0, 12224.70548447436, 18783.62372918412, 0.0, 0.0, 0.0, 0.0, 0.0, 0.0, 0.342, 0.666, -0.672, 192.0, 0.0, 0.0, 0.0, 0.0, 0.0, 0.0, 0.0, 0.0, 0.0, 1.677182685412581E9, 0.0, 2023-02-23 12:04:45.412
191.0, 12223.029103640212, 18782.036755327794, 0.0, 0.0, 0.0, 0.0, 0.0, 0.0, 0.342, 0.666, -0.672, 192.0, 0.0, 0.0, 0.0, 0.0, 0.0, 0.0, 0.0, 0.0, 0.0, 1.677182685419615E9, 0.0, 2023-02-23 12:04:45.419
192.0, 12232.483891544807, 18791.312729276746, 0.0, 0.0, 0.0, 0.0, 0.0, 0.0, 0.342, 0.666, -0.672, 192.0, 0.0, 0.0, 0.0, 0.0, 0.0, 0.0, 0.0, 0.0, 0.0, 1.677182685419633E9, 0.0, 2023-02-23 12:04:45.419
193.0, 12236.864833458047, 18794.553732222765, 0.0, 0.0, 0.0, 0.0, 0.0, 0.0, 0.342, 0.666, -0.672, 192.0, 0.0, 0.0, 0.0, 0.0, 0.0, 0.0, 0.0, 0.0, 0.0, 1.677182685429257E9, 0.0, 2023-02-23 12:04:45.429
194.0, 12233.199147367377, 18795.872485145628, 0.0, 0.0, 0.0, 0.0, 0.0, 0.0, 0.342, 0.666, -0.672, 192.0, 0.0, 0.0, 0.0, 0.0, 0.0, 0.0, 0.0, 0.0, 0.0, 1.677182685435659E9, 0.0, 2023-02-23 12:04:45.435
195.0, 12232.819167711636, 18796.274816545825, 0.0, 0.0, 0.0, 0.0, 0.0, 0.0, 0.34, 0.668, -0.668, 192.0, 10.0, 160.0, 20.0, 224.0, 235.0, 32.0, 0.0, 0.0, 0.0, 1.677182685435671E9, 0.0, 2023-02-23 12:04:45.435
196.0, 12230.405179310463, 18792.475019988422, 0.0, 0.0, 0.0, 0.0, 0.0, 0.0, 0.34, 0.668, -0.668, 192.0, 0.0, 0.0, 0.0, 0.0, 0.0, 0.0, 0.0, 0.0, 0.0, 1.677182685442351E9, 0.0, 2023-02-23 12:04:45.442
197.0, 12226.493624030785, 18786.797676896775, 0.0, 0.0, 0.0, 0.0, 0.0, 0.0, 0.34, 0.668, -0.668, 192.0, 0.0, 0.0, 0.0, 0.0, 0.0, 0.0, 0.0, 0.0, 0.0, 1.677182685442363E9, 0.0, 2023-02-23 12:04:45.442
198.0, 12229.086426387601, 18780.740354149384, 0.0, 0.0, 0.0, 0.0, 0.0, 0.0, 0.34, 0.668, -0.668, 192.0, 0.0, 0.0, 0.0, 0.0, 0.0, 0.0, 0.0, 0.0, 0.0, 1.677182685450214E9, 0.0, 2023-02-23 12:04:45.450
199.0, 12232.238022355798, 18782.304976261257, 0.0, 0.0, 0.0, 0.0, 0.0, 0.0, 0.34, 0.668, -0.668, 192.0, 0.0, 0.0, 0.0, 0.0, 0.0, 0.0, 0.0, 0.0, 0.0, 1.677182685450223E9, 0.0, 2023-02-23 12:04:45.450
200.0, 12240.083484659612, 18793.19027581099, 0.0, 0.0, 0.0, 0.0, 0.0, 0.0, 0.34, 0.668, -0.668, 192.0, 0.0, 0.0, 0.0, 0.0, 0.0, 0.0, 0.0, 0.0, 0.0, 1.677182685458311E9, 0.0, 2023-02-23 12:04:45.458
201.0, 12246.386676596008, 18797.884142146606, 0.0, 0.0, 0.0, 0.0, 0.0, 0.0, 0.34, 0.668, -0.668, 192.0, 0.0, 0.0, 0.0, 0.0, 0.0, 0.0, 0.0, 0.0, 0.0, 1.67718268545833E9, 0.0, 2023-02-23 12:04:45.458
202.0, 12240.619926526539, 18794.24080780039, 0.0, 0.0, 0.0, 0.0, 0.0, 0.0, 0.34, 0.668, -0.668, 192.0, 0.0, 0.0, 0.0, 0.0, 0.0, 0.0, 0.0, 0.0, 0.0, 1.677182685465339E9, 0.0, 2023-02-23 12:04:45.465
203.0, 12240.798740482182, 18797.97354912443, 0.0, 0.0, 0.0, 0.0, 0.0, 0.0, 0.34, 0.668, -0.668, 192.0, 0.0, 0.0, 0.0, 0.0, 0.0, 0.0, 0.0, 0.0, 0.0, 1.677182685465358E9, 0.0, 2023-02-23 12:04:45.465
204.0, 12257.71901103485, 18803.606188727164, 0.0, 0.0, 0.0, 0.0, 0.0, 0.0, 0.34, 0.668, -0.668, 192.0, 0.0, 0.0, 0.0, 0.0, 0.0, 0.0, 0.0, 0.0, 0.0, 1.677182685472799E9, 0.0, 2023-02-23 12:04:45.472
205.0, 12251.974612709835, 18799.895799147584, 0.0, 0.0, 0.0, 0.0, 0.0, 0.0, 0.34, 0.664, -0.674, 192.0, 10.0, 160.0, 20.0, 192.0, 234.0, 240.0, 0.0, 0.0, 0.0, 1.677182685472821E9, 0.0, 2023-02-23 12:04:45.472
206.0, 12242.18454863841, 18800.61105497015, 0.0, 0.0, 0.0, 0.0, 0.0, 0.0, 0.34, 0.664, -0.674, 192.0, 0.0, 0.0, 0.0, 0.0, 0.0, 0.0, 0.0, 0.0, 0.0, 1.677182685480892E9, 0.0, 2023-02-23 12:04:45.480
207.0, 12243.257432372266, 18798.800563669272, 0.0, 0.0, 0.0, 0.0, 0.0, 0.0, 0.34, 0.664, -0.674, 192.0, 0.0, 0.0, 0.0, 0.0, 0.0, 0.0, 0.0, 0.0, 0.0, 1.677182685480906E9, 0.0, 2023-02-23 12:04:45.480
208.0, 12251.415819098453, 18800.074613103225, 0.0, 0.0, 0.0, 0.0, 0.0, 0.0, 0.34, 0.664, -0.674, 192.0, 0.0, 0.0, 0.0, 0.0, 0.0, 0.0, 0.0, 0.0, 0.0, 1.677182685487969E9, 0.0, 2023-02-23 12:04:45.487
209.0, 12249.828845242126, 18799.269950302834, 0.0, 0.0, 0.0, 0.0, 0.0, 0.0, 0.34, 0.664, -0.674, 192.0, 0.0, 0.0, 0.0, 0.0, 0.0, 0.0, 0.0, 0.0, 0.0, 1.677182685495008E9, 0.0, 2023-02-23 12:04:45.495
210.0, 12245.693772517894, 18798.15236308007, 0.0, 0.0, 0.0, 0.0, 0.0, 0.0, 0.34, 0.664, -0.674, 192.0, 0.0, 0.0, 0.0, 0.0, 0.0, 0.0, 0.0, 0.0, 0.0, 1.67718268549502E9, 0.0, 2023-02-23 12:04:45.495
211.0, 12241.178720137921, 18791.75976416585, 0.0, 0.0, 0.0, 0.0, 0.0, 0.0, 0.34, 0.664, -0.674, 192.0, 0.0, 0.0, 0.0, 0.0, 0.0, 0.0, 0.0, 0.0, 0.0, 1.677182685502484E9, 0.0, 2023-02-23 12:04:45.502
212.0, 12241.245775371288, 18786.887083874593, 0.0, 0.0, 0.0, 0.0, 0.0, 0.0, 0.34, 0.664, -0.674, 192.0, 0.0, 0.0, 0.0, 0.0, 0.0, 0.0, 0.0, 0.0, 0.0, 1.677182685502503E9, 0.0, 2023-02-23 12:04:45.502
213.0, 12243.548005050185, 18788.272892030822, 0.0, 0.0, 0.0, 0.0, 0.0, 0.0, 0.34, 0.664, -0.674, 192.0, 0.0, 0.0, 0.0, 0.0, 0.0, 0.0, 0.0, 0.0, 0.0, 1.677182685510648E9, 0.0, 2023-02-23 12:04:45.510
214.0, 12241.938679449402, 18790.10573507616, 0.0, 0.0, 0.0, 0.0, 0.0, 0.0, 0.34, 0.664, -0.674, 192.0, 0.0, 0.0, 0.0, 0.0, 0.0, 0.0, 0.0, 0.0, 0.0, 1.677182685510673E9, 0.0, 2023-02-23 12:04:45.510
215.0, 12244.911461461958, 18789.39047925359, 0.0, 0.0, 0.0, 0.0, 0.0, 0.0, 0.334, 0.666, -0.674, 192.0, 10.0, 112.0, 20.0, 208.0, 234.0, 240.0, 0.0, 0.0, 0.0, 1.67718268551851E9, 0.0, 2023-02-23 12:04:45.518
216.0, 12239.658801514961, 18787.021194341327, 0.0, 0.0, 0.0, 0.0, 0.0, 0.0, 0.334, 0.666, -0.674, 192.0, 0.0, 0.0, 0.0, 0.0, 0.0, 0.0, 0.0, 0.0, 0.0, 1.677182685518533E9, 0.0, 2023-02-23 12:04:45.518
217.0, 12239.99407768179, 18791.357432765657, 0.0, 0.0, 0.0, 0.0, 0.0, 0.0, 0.334, 0.666, -0.674, 192.0, 0.0, 0.0, 0.0, 0.0, 0.0, 0.0, 0.0, 0.0, 0.0, 1.677182685525046E9, 0.0, 2023-02-23 12:04:45.525
218.0, 12245.13497890651, 18787.71409841944, 0.0, 0.0, 0.0, 0.0, 0.0, 0.0, 0.334, 0.666, -0.674, 192.0, 0.0, 0.0, 0.0, 0.0, 0.0, 0.0, 0.0, 0.0, 0.0, 1.677182685525064E9, 0.0, 2023-02-23 12:04:45.525
219.0, 12250.23117664232, 18788.54111296429, 0.0, 0.0, 0.0, 0.0, 0.0, 0.0, 0.334, 0.666, -0.674, 192.0, 0.0, 0.0, 0.0, 0.0, 0.0, 0.0, 0.0, 0.0, 0.0, 1.677182685533089E9, 0.0, 2023-02-23 12:04:45.533
220.0, 12256.444961600895, 18792.13974382159, 0.0, 0.0, 0.0, 0.0, 0.0, 0.0, 0.334, 0.666, -0.674, 192.0, 0.0, 0.0, 0.0, 0.0, 0.0, 0.0, 0.0, 0.0, 0.0, 1.677182685533102E9, 0.0, 2023-02-23 12:04:45.533
221.0, 12257.540197079206, 18795.09017408969, 0.0, 0.0, 0.0, 0.0, 0.0, 0.0, 0.334, 0.666, -0.674, 192.0, 0.0, 0.0, 0.0, 0.0, 0.0, 0.0, 0.0, 0.0, 0.0, 1.677182685541036E9, 0.0, 2023-02-23 12:04:45.541
222.0, 12249.784141753214, 18799.068784602736, 0.0, 0.0, 0.0, 0.0, 0.0, 0.0, 0.334, 0.666, -0.674, 192.0, 0.0, 0.0, 0.0, 0.0, 0.0, 0.0, 0.0, 0.0, 0.0, 1.677182685541045E9, 0.0, 2023-02-23 12:04:45.541
223.0, 12246.476083573829, 18792.095040332682, 0.0, 0.0, 0.0, 0.0, 0.0, 0.0, 0.334, 0.666, -0.674, 192.0, 0.0, 0.0, 0.0, 0.0, 0.0, 0.0, 0.0, 0.0, 0.0, 1.677182685548187E9, 0.0, 2023-02-23 12:04:45.548
224.0, 12247.727781263326, 18791.022156598825, 0.0, 0.0, 0.0, 0.0, 0.0, 0.0, 0.334, 0.666, -0.674, 192.0, 0.0, 0.0, 0.0, 0.0, 0.0, 0.0, 0.0, 0.0, 0.0, 1.677182685554695E9, 0.0, 2023-02-23 12:04:45.554
225.0, 12254.85798774457, 18794.218456055936, 0.0, 0.0, 0.0, 0.0, 0.0, 0.0, 0.34400000000000003, 0.668, -0.676, 192.0, 10.0, 192.0, 20.0, 224.0, 234.0, 224.0, 0.0, 0.0, 0.0, 1.677182685554719E9, 0.0, 2023-02-23 12:04:45.554
226.0, 12252.354592365575, 18796.207761312457, 0.0, 0.0, 0.0, 0.0, 0.0, 0.0, 0.34400000000000003, 0.668, -0.676, 192.0, 0.0, 0.0, 0.0, 0.0, 0.0, 0.0, 0.0, 0.0, 0.0, 1.67718268556274E9, 0.0, 2023-02-23 12:04:45.562
227.0, 12253.986269710813, 18805.237866072403, 0.0, 0.0, 0.0, 0.0, 0.0, 0.0, 0.34400000000000003, 0.668, -0.676, 192.0, 0.0, 0.0, 0.0, 0.0, 0.0, 0.0, 0.0, 0.0, 0.0, 1.677182685562757E9, 0.0, 2023-02-23 12:04:45.562
228.0, 12251.147598164987, 18798.219418313434, 0.0, 0.0, 0.0, 0.0, 0.0, 0.0, 0.34400000000000003, 0.668, -0.676, 192.0, 0.0, 0.0, 0.0, 0.0, 0.0, 0.0, 0.0, 0.0, 0.0, 1.677182685570806E9, 0.0, 2023-02-23 12:04:45.570
229.0, 12244.710295761859, 18788.742278664384, 0.0, 0.0, 0.0, 0.0, 0.0, 0.0, 0.34400000000000003, 0.668, -0.676, 192.0, 0.0, 0.0, 0.0, 0.0, 0.0, 0.0, 0.0, 0.0, 0.0, 1.67718268557082E9, 0.0, 2023-02-23 12:04:45.570
230.0, 12238.496510803285, 18790.128086820616, 0.0, 0.0, 0.0, 0.0, 0.0, 0.0, 0.34400000000000003, 0.668, -0.676, 192.0, 0.0, 0.0, 0.0, 0.0, 0.0, 0.0, 0.0, 0.0, 0.0, 1.677182685577326E9, 0.0, 2023-02-23 12:04:45.577
231.0, 12241.983382938311, 18790.70923217645, 0.0, 0.0, 0.0, 0.0, 0.0, 0.0, 0.34400000000000003, 0.668, -0.676, 192.0, 0.0, 0.0, 0.0, 0.0, 0.0, 0.0, 0.0, 0.0, 0.0, 1.677182685577339E9, 0.0, 2023-02-23 12:04:45.577
232.0, 12246.453731829373, 18785.590682696187, 0.0, 0.0, 0.0, 0.0, 0.0, 0.0, 0.34400000000000003, 0.668, -0.676, 192.0, 0.0, 0.0, 0.0, 0.0, 0.0, 0.0, 0.0, 0.0, 0.0, 1.677182685585316E9, 0.0, 2023-02-23 12:04:45.585
233.0, 12251.28170863172, 18792.81029615525, 0.0, 0.0, 0.0, 0.0, 0.0, 0.0, 0.34400000000000003, 0.668, -0.676, 192.0, 0.0, 0.0, 0.0, 0.0, 0.0, 0.0, 0.0, 0.0, 0.0, 1.677182685585328E9, 0.0, 2023-02-23 12:04:45.585
234.0, 12261.652918058982, 18808.210648084958, 0.0, 0.0, 0.0, 0.0, 0.0, 0.0, 0.34400000000000003, 0.668, -0.676, 192.0, 0.0, 0.0, 0.0, 0.0, 0.0, 0.0, 0.0, 0.0, 0.0, 1.677182685593375E9, 0.0, 2023-02-23 12:04:45.593
235.0, 12269.185455940422, 18808.23299982941, 0.0, 0.0, 0.0, 0.0, 0.0, 0.0, 0.34, 0.662, -0.682, 192.0, 10.0, 160.0, 20.0, 176.0, 234.0, 176.0, 0.0, 0.0, 0.0, 1.677182685593396E9, 0.0, 2023-02-23 12:04:45.593
236.0, 12264.133961693522, 18802.4886015044, 0.0, 0.0, 0.0, 0.0, 0.0, 0.0, 0.34, 0.662, -0.682, 192.0, 0.0, 0.0, 0.0, 0.0, 0.0, 0.0, 0.0, 0.0, 0.0, 1.677182685600585E9, 0.0, 2023-02-23 12:04:45.600
237.0, 12259.99888896929, 18795.872485145628, 0.0, 0.0, 0.0, 0.0, 0.0, 0.0, 0.34, 0.662, -0.682, 192.0, 0.0, 0.0, 0.0, 0.0, 0.0, 0.0, 0.0, 0.0, 0.0, 1.677182685600601E9, 0.0, 2023-02-23 12:04:45.600
238.0, 12269.297214662698, 18801.68393870401, 0.0, 0.0, 0.0, 0.0, 0.0, 0.0, 0.34, 0.662, -0.682, 192.0, 0.0, 0.0, 0.0, 0.0, 0.0, 0.0, 0.0, 0.0, 0.0, 1.677182685607062E9, 0.0, 2023-02-23 12:04:45.607
239.0, 12261.451752358886, 18802.376842782123, 0.0, 0.0, 0.0, 0.0, 0.0, 0.0, 0.34, 0.662, -0.682, 192.0, 0.0, 0.0, 0.0, 0.0, 0.0, 0.0, 0.0, 0.0, 0.0, 1.677182685615007E9, 0.0, 2023-02-23 12:04:45.615
240.0, 12256.28849938971, 18803.49443000489, 0.0, 0.0, 0.0, 0.0, 0.0, 0.0, 0.34, 0.662, -0.682, 192.0, 0.0, 0.0, 0.0, 0.0, 0.0, 0.0, 0.0, 0.0, 0.0, 1.677182685615025E9, 0.0, 2023-02-23 12:04:45.615
241.0, 12259.037763957711, 18805.39432828359, 0.0, 0.0, 0.0, 0.0, 0.0, 0.0, 0.34, 0.662, -0.682, 192.0, 0.0, 0.0, 0.0, 0.0, 0.0, 0.0, 0.0, 0.0, 0.0, 1.67718268562367E9, 0.0, 2023-02-23 12:04:45.623
242.0, 12260.848255258592, 18804.321444549732, 0.0, 0.0, 0.0, 0.0, 0.0, 0.0, 0.34, 0.662, -0.682, 192.0, 0.0, 0.0, 0.0, 0.0, 0.0, 0.0, 0.0, 0.0, 0.0, 1.677182685623683E9, 0.0, 2023-02-23 12:04:45.623
243.0, 12254.634470300016, 18797.95119737997, 0.0, 0.0, 0.0, 0.0, 0.0, 0.0, 0.34, 0.662, -0.682, 192.0, 0.0, 0.0, 0.0, 0.0, 0.0, 0.0, 0.0, 0.0, 0.0, 1.67718268563015E9, 0.0, 2023-02-23 12:04:45.630
244.0, 12238.071827658634, 18781.90264486106, 0.0, 0.0, 0.0, 0.0, 0.0, 0.0, 0.34, 0.662, -0.682, 192.0, 0.0, 0.0, 0.0, 0.0, 0.0, 0.0, 0.0, 0.0, 0.0, 1.677182685630163E9, 0.0, 2023-02-23 12:04:45.630
245.0, 12243.726819005826, 18788.29524377528, 0.0, 0.0, 0.0, 0.0, 0.0, 0.0, 0.342, 0.67, -0.684, 192.0, 10.0, 176.0, 20.0, 240.0, 234.0, 160.0, 0.0, 0.0, 0.0, 1.677182685637771E9, 0.0, 2023-02-23 12:04:45.637
246.0, 12254.634470300016, 18796.319520034733, 0.0, 0.0, 0.0, 0.0, 0.0, 0.0, 0.342, 0.67, -0.684, 192.0, 0.0, 0.0, 0.0, 0.0, 0.0, 0.0, 0.0, 0.0, 0.0, 1.677182685637793E9, 0.0, 2023-02-23 12:04:45.637
247.0, 12271.912368763968, 18804.14263059409, 0.0, 0.0, 0.0, 0.0, 0.0, 0.0, 0.342, 0.67, -0.684, 192.0, 0.0, 0.0, 0.0, 0.0, 0.0, 0.0, 0.0, 0.0, 0.0, 1.67718268564563E9, 0.0, 2023-02-23 12:04:45.645
248.0, 12272.985252497823, 18798.353528780168, 0.0, 0.0, 0.0, 0.0, 0.0, 0.0, 0.342, 0.67, -0.684, 192.0, 0.0, 0.0, 0.0, 0.0, 0.0, 0.0, 0.0, 0.0, 0.0, 1.677182685645654E9, 0.0, 2023-02-23 12:04:45.645
249.0, 12253.0921999326, 18788.67522343102, 0.0, 0.0, 0.0, 0.0, 0.0, 0.0, 0.342, 0.67, -0.684, 192.0, 0.0, 0.0, 0.0, 0.0, 0.0, 0.0, 0.0, 0.0, 0.0, 1.677182685653779E9, 0.0, 2023-02-23 12:04:45.653
250.0, 12266.23502567232, 18798.599397969174, 0.0, 0.0, 0.0, 0.0, 0.0, 0.0, 0.342, 0.67, -0.684, 192.0, 0.0, 0.0, 0.0, 0.0, 0.0, 0.0, 0.0, 0.0, 0.0, 1.6771826856538E9, 0.0, 2023-02-23 12:04:45.653
251.0, 12267.710240806371, 18794.553732222765, 0.0, 0.0, 0.0, 0.0, 0.0, 0.0, 0.342, 0.67, -0.684, 192.0, 0.0, 0.0, 0.0, 0.0, 0.0, 0.0, 0.0, 0.0, 0.0, 1.677182685660325E9, 0.0, 2023-02-23 12:04:45.660
252.0, 12276.76269731077, 18796.09600259018, 0.0, 0.0, 0.0, 0.0, 0.0, 0.0, 0.342, 0.67, -0.684, 192.0, 0.0, 0.0, 0.0, 0.0, 0.0, 0.0, 0.0, 0.0, 0.0, 1.67718268566035E9, 0.0, 2023-02-23 12:04:45.660
253.0, 12282.23887470232, 18804.701424205476, 0.0, 0.0, 0.0, 0.0, 0.0, 0.0, 0.342, 0.67, -0.684, 192.0, 0.0, 0.0, 0.0, 0.0, 0.0, 0.0, 0.0, 0.0, 0.0, 1.677182685667339E9, 0.0, 2023-02-23 12:04:45.667
254.0, 12288.296197449708, 18817.73249122292, 0.0, 0.0, 0.0, 0.0, 0.0, 0.0, 0.336, 0.666, -0.6880000000000001, 192.0, 10.0, 128.0, 20.0, 208.0, 234.0, 128.0, 0.0, 0.0, 0.0, 1.677182685667352E9, 0.0, 2023-02-23 12:04:45.667
255.0, 12285.882209048536, 18817.15134586708, 0.0, 0.0, 0.0, 0.0, 0.0, 0.0, 0.336, 0.666, -0.6880000000000001, 192.0, 0.0, 0.0, 0.0, 0.0, 0.0, 0.0, 0.0, 0.0, 0.0, 1.67718268567529E9, 0.0, 2023-02-23 12:04:45.675
0.0, 12272.627624586537, 18806.936598651006, 0.0, 0.0, 0.0, 0.0, 0.0, 0.0, 0.336, 0.666, -0.6880000000000001, 192.0, 0.0, 0.0, 0.0, 0.0, 0.0, 0.0, 0.0, 0.0, 0.0, 1.677182685683408E9, 0.0, 2023-02-23 12:04:45.683
1.0, 12278.95316826739, 18812.52453476483, 0.0, 0.0, 0.0, 0.0, 0.0, 0.0, 0.336, 0.666, -0.6880000000000001, 192.0, 0.0, 0.0, 0.0, 0.0, 0.0, 0.0, 0.0, 0.0, 0.0, 1.67718268568343E9, 0.0, 2023-02-23 12:04:45.683
2.0, 12271.040650730212, 18805.751956194872, 0.0, 0.0, 0.0, 0.0, 0.0, 0.0, 0.336, 0.666, -0.6880000000000001, 192.0, 0.0, 0.0, 0.0, 0.0, 0.0, 0.0, 0.0, 0.0, 0.0, 1.677182685690003E9, 0.0, 2023-02-23 12:04:45.690
3.0, 12268.894883262503, 18815.094985377193, 0.0, 0.0, 0.0, 0.0, 0.0, 0.0, 0.336, 0.666, -0.6880000000000001, 192.0, 0.0, 0.0, 0.0, 0.0, 0.0, 0.0, 0.0, 0.0, 0.0, 1.67718268569003E9, 0.0, 2023-02-23 12:04:45.690
4.0, 12267.866703017558, 18818.514802278853, 0.0, 0.0, 0.0, 0.0, 0.0, 0.0, 0.336, 0.666, -0.6880000000000001, 192.0, 0.0, 0.0, 0.0, 0.0, 0.0, 0.0, 0.0, 0.0, 0.0, 1.677182685697919E9, 0.0, 2023-02-23 12:04:45.697
5.0, 12269.0960489626, 18820.5935145132, 0.0, 0.0, 0.0, 0.0, 0.0, 0.0, 0.336, 0.666, -0.6880000000000001, 192.0, 0.0, 0.0, 0.0, 0.0, 0.0, 0.0, 0.0, 0.0, 0.0, 1.677182685697936E9, 0.0, 2023-02-23 12:04:45.697
6.0, 12272.649976330993, 18825.175622126535, 0.0, 0.0, 0.0, 0.0, 0.0, 0.0, 0.336, 0.666, -0.6880000000000001, 192.0, 0.0, 0.0, 0.0, 0.0, 0.0, 0.0, 0.0, 0.0, 0.0, 1.677182685706009E9, 0.0, 2023-02-23 12:04:45.706
7.0, 12280.584845612628, 18841.648857790096, 0.0, 0.0, 0.0, 0.0, 0.0, 0.0, 0.336, 0.666, -0.6880000000000001, 192.0, 0.0, 0.0, 0.0, 0.0, 0.0, 0.0, 0.0, 0.0, 0.0, 1.677182685706023E9, 0.0, 2023-02-23 12:04:45.706
8.0, 12284.00466251429, 18849.024933460347, 0.0, 0.0, 0.0, 0.0, 0.0, 0.0, 0.364, 0.67, -0.6900000000000001, 192.0, 11.0, 96.0, 20.0, 240.0, 234.0, 112.0, 0.0, 0.0, 0.0, 1.677182685713107E9, 0.0, 2023-02-23 12:04:45.713
9.0, 12278.081450233632, 18846.946221226004, 0.0, 0.0, 0.0, 0.0, 0.0, 0.0, 0.364, 0.67, -0.6900000000000001, 192.0, 0.0, 0.0, 0.0, 0.0, 0.0, 0.0, 0.0, 0.0, 0.0, 1.677182685713124E9, 0.0, 2023-02-23 12:04:45.713
10.0, 12266.011508227768, 18834.71981700895, 0.0, 0.0, 0.0, 0.0, 0.0, 0.0, 0.364, 0.67, -0.6900000000000001, 192.0, 0.0, 0.0, 0.0, 0.0, 0.0, 0.0, 0.0, 0.0, 0.0, 1.677182685720604E9, 0.0, 2023-02-23 12:04:45.720
11.0, 12263.642223315504, 18832.976380941436, 0.0, 0.0, 0.0, 0.0, 0.0, 0.0, 0.364, 0.67, -0.6900000000000001, 192.0, 0.0, 0.0, 0.0, 0.0, 0.0, 0.0, 0.0, 0.0, 0.0, 1.677182685720612E9, 0.0, 2023-02-23 12:04:45.720
12.0, 12264.871569260547, 18835.882107720627, 0.0, 0.0, 0.0, 0.0, 0.0, 0.0, 0.364, 0.67, -0.6900000000000001, 192.0, 0.0, 0.0, 0.0, 0.0, 0.0, 0.0, 0.0, 0.0, 0.0, 1.677182685728521E9, 0.0, 2023-02-23 12:04:45.728
13.0, 12264.268072160254, 18837.91611646606, 0.0, 0.0, 0.0, 0.0, 0.0, 0.0, 0.364, 0.67, -0.6900000000000001, 192.0, 0.0, 0.0, 0.0, 0.0, 0.0, 0.0, 0.0, 0.0, 0.0, 1.677182685728539E9, 0.0, 2023-02-23 12:04:45.728
14.0, 12269.833656529625, 18850.41074161658, 0.0, 0.0, 0.0, 0.0, 0.0, 0.0, 0.364, 0.67, -0.6900000000000001, 192.0, 0.0, 0.0, 0.0, 0.0, 0.0, 0.0, 0.0, 0.0, 0.0, 1.677182685735675E9, 0.0, 2023-02-23 12:04:45.735
15.0, 12278.081450233632, 18859.306735909788, 0.0, 0.0, 0.0, 0.0, 0.0, 0.0, 0.364, 0.67, -0.6900000000000001, 192.0, 0.0, 0.0, 0.0, 0.0, 0.0, 0.0, 0.0, 0.0, 0.0, 1.677182685742788E9, 0.0, 2023-02-23 12:04:45.742
16.0, 12283.691738091915, 18863.419456889565, 0.0, 0.0, 0.0, 0.0, 0.0, 0.0, 0.364, 0.67, -0.6900000000000001, 192.0, 0.0, 0.0, 0.0, 0.0, 0.0, 0.0, 0.0, 0.0, 0.0, 1.677182685742806E9, 0.0, 2023-02-23 12:04:45.742
17.0, 12282.887075291525, 18858.882052765137, 0.0, 0.0, 0.0, 0.0, 0.0, 0.0, 0.364, 0.67, -0.6900000000000001, 192.0, 0.0, 0.0, 0.0, 0.0, 0.0, 0.0, 0.0, 0.0, 0.0, 1.677182685750181E9, 0.0, 2023-02-23 12:04:45.750
18.0, 12284.76462182577, 18854.5011108519, 0.0, 0.0, 0.0, 0.0, 0.0, 0.0, 0.362, 0.664, -0.67, 192.0, 11.0, 80.0, 20.0, 192.0, 235.0, 16.0, 0.0, 0.0, 0.0, 1.677182685750191E9, 0.0, 2023-02-23 12:04:45.750
19.0, 12289.972578283856, 18860.983116743937, 0.0, 0.0, 0.0, 0.0, 0.0, 0.0, 0.362, 0.664, -0.67, 192.0, 0.0, 0.0, 0.0, 0.0, 0.0, 0.0, 0.0, 0.0, 0.0, 1.677182685758316E9, 0.0, 2023-02-23 12:04:45.758
20.0, 12294.264113219275, 18865.855797035194, 0.0, 0.0, 0.0, 0.0, 0.0, 0.0, 0.362, 0.664, -0.67, 192.0, 0.0, 0.0, 0.0, 0.0, 0.0, 0.0, 0.0, 0.0, 0.0, 1.677182685758334E9, 0.0, 2023-02-23 12:04:45.758
21.0, 12288.00562477179, 18858.77029404286, 0.0, 0.0, 0.0, 0.0, 0.0, 0.0, 0.362, 0.664, -0.67, 192.0, 0.0, 0.0, 0.0, 0.0, 0.0, 0.0, 0.0, 0.0, 0.0, 1.677182685766303E9, 0.0, 2023-02-23 12:04:45.766
22.0, 12295.62756963105, 18858.233852175934, 0.0, 0.0, 0.0, 0.0, 0.0, 0.0, 0.362, 0.664, -0.67, 192.0, 0.0, 0.0, 0.0, 0.0, 0.0, 0.0, 0.0, 0.0, 0.0, 1.677182685766312E9, 0.0, 2023-02-23 12:04:45.766
23.0, 12294.554685897194, 18857.071561464258, 0.0, 0.0, 0.0, 0.0, 0.0, 0.0, 0.362, 0.664, -0.67, 192.0, 0.0, 0.0, 0.0, 0.0, 0.0, 0.0, 0.0, 0.0, 0.0, 1.677182685772896E9, 0.0, 2023-02-23 12:04:45.772
24.0, 12293.302988207697, 18855.01520097437, 0.0, 0.0, 0.0, 0.0, 0.0, 0.0, 0.362, 0.664, -0.67, 192.0, 0.0, 0.0, 0.0, 0.0, 0.0, 0.0, 0.0, 0.0, 0.0, 1.677182685772913E9, 0.0, 2023-02-23 12:04:45.772
25.0, 12293.86178181908, 18860.804302788296, 0.0, 0.0, 0.0, 0.0, 0.0, 0.0, 0.362, 0.664, -0.67, 192.0, 0.0, 0.0, 0.0, 0.0, 0.0, 0.0, 0.0, 0.0, 0.0, 1.677182685780923E9, 0.0, 2023-02-23 12:04:45.780
26.0, 12291.514848651273, 18859.26203242088, 0.0, 0.0, 0.0, 0.0, 0.0, 0.0, 0.362, 0.664, -0.67, 192.0, 0.0, 0.0, 0.0, 0.0, 0.0, 0.0, 0.0, 0.0, 0.0, 1.677182685780943E9, 0.0, 2023-02-23 12:04:45.780
27.0, 12295.113479508576, 18861.474855121953, 0.0, 0.0, 0.0, 0.0, 0.0, 0.0, 0.362, 0.664, -0.67, 192.0, 0.0, 0.0, 0.0, 0.0, 0.0, 0.0, 0.0, 0.0, 0.0, 1.677182685788956E9, 0.0, 2023-02-23 12:04:45.788
28.0, 12300.097918522111, 18864.268823178867, 0.0, 0.0, 0.0, 0.0, 0.0, 0.0, 0.34600000000000003, 0.658, -0.66, 192.0, 10.0, 208.0, 20.0, 144.0, 235.0, 96.0, 0.0, 0.0, 0.0, 1.677182685788973E9, 0.0, 2023-02-23 12:04:45.788
29.0, 12309.999741315813, 18868.895634281118, 0.0, 0.0, 0.0, 0.0, 0.0, 0.0, 0.34600000000000003, 0.658, -0.66, 192.0, 0.0, 0.0, 0.0, 0.0, 0.0, 0.0, 0.0, 0.0, 0.0, 1.677182685795053E9, 0.0, 2023-02-23 12:04:45.795
30.0, 12298.868572577068, 18853.338820140223, 0.0, 0.0, 0.0, 0.0, 0.0, 0.0, 0.34600000000000003, 0.658, -0.66, 192.0, 0.0, 0.0, 0.0, 0.0, 0.0, 0.0, 0.0, 0.0, 0.0, 1.677182685802566E9, 0.0, 2023-02-23 12:04:45.802
31.0, 12308.278656992754, 18855.708105052487, 0.0, 0.0, 0.0, 0.0, 0.0, 0.0, 0.34600000000000003, 0.658, -0.66, 192.0, 0.0, 0.0, 0.0, 0.0, 0.0, 0.0, 0.0, 0.0, 0.0, 1.677182685802578E9, 0.0, 2023-02-23 12:04:45.802
32.0, 12310.804404116203, 18862.033648733337, 0.0, 0.0, 0.0, 0.0, 0.0, 0.0, 0.34600000000000003, 0.658, -0.66, 192.0, 0.0, 0.0, 0.0, 0.0, 0.0, 0.0, 0.0, 0.0, 0.0, 1.677182685810635E9, 0.0, 2023-02-23 12:04:45.810
33.0, 12305.708206380392, 18861.340744655223, 0.0, 0.0, 0.0, 0.0, 0.0, 0.0, 0.34600000000000003, 0.658, -0.66, 192.0, 0.0, 0.0, 0.0, 0.0, 0.0, 0.0, 0.0, 0.0, 0.0, 1.677182685810644E9, 0.0, 2023-02-23 12:04:45.810
34.0, 12297.706281865392, 18852.26593640637, 0.0, 0.0, 0.0, 0.0, 0.0, 0.0, 0.34600000000000003, 0.658, -0.66, 192.0, 0.0, 0.0, 0.0, 0.0, 0.0, 0.0, 0.0, 0.0, 0.0, 1.677182685818705E9, 0.0, 2023-02-23 12:04:45.818
35.0, 12300.276732477752, 18853.137654440125, 0.0, 0.0, 0.0, 0.0, 0.0, 0.0, 0.34600000000000003, 0.658, -0.66, 192.0, 0.0, 0.0, 0.0, 0.0, 0.0, 0.0, 0.0, 0.0, 0.0, 1.67718268581873E9, 0.0, 2023-02-23 12:04:45.818
36.0, 12320.259192020798, 18870.527311626352, 0.0, 0.0, 0.0, 0.0, 0.0, 0.0, 0.34600000000000003, 0.658, -0.66, 192.0, 0.0, 0.0, 0.0, 0.0, 0.0, 0.0, 0.0, 0.0, 0.0, 1.677182685826612E9, 0.0, 2023-02-23 12:04:45.826
37.0, 12308.189250014932, 18853.338820140223, 0.0, 0.0, 0.0, 0.0, 0.0, 0.0, 0.34600000000000003, 0.658, -0.66, 192.0, 0.0, 0.0, 0.0, 0.0, 0.0, 0.0, 0.0, 0.0, 0.0, 1.677182685826629E9, 0.0, 2023-02-23 12:04:45.826
38.0, 12288.43030791644, 18840.844194989706, 0.0, 0.0, 0.0, 0.0, 0.0, 0.0, 0.314, 0.66, -0.67, 192.0, 9.0, 208.0, 20.0, 160.0, 235.0, 16.0, 0.0, 0.0, 0.0, 1.677182685835118E9, 0.0, 2023-02-23 12:04:45.835
39.0, 12297.90744756549, 18846.163910170068, 0.0, 0.0, 0.0, 0.0, 0.0, 0.0, 0.314, 0.66, -0.67, 192.0, 0.0, 0.0, 0.0, 0.0, 0.0, 0.0, 0.0, 0.0, 0.0, 1.677182685835134E9, 0.0, 2023-02-23 12:04:45.835
40.0, 12295.895790564513, 18848.3990846156, 0.0, 0.0, 0.0, 0.0, 0.0, 0.0, 0.314, 0.66, -0.67, 192.0, 0.0, 0.0, 0.0, 0.0, 0.0, 0.0, 0.0, 0.0, 0.0, 1.677182685841215E9, 0.0, 2023-02-23 12:04:45.841
41.0, 12289.838467817124, 18840.955953711982, 0.0, 0.0, 0.0, 0.0, 0.0, 0.0, 0.314, 0.66, -0.67, 192.0, 0.0, 0.0, 0.0, 0.0, 0.0, 0.0, 0.0, 0.0, 0.0, 1.67718268584123E9, 0.0, 2023-02-23 12:04:45.841
42.0, 12286.105726493088, 18834.4962995644, 0.0, 0.0, 0.0, 0.0, 0.0, 0.0, 0.314, 0.66, -0.67, 192.0, 0.0, 0.0, 0.0, 0.0, 0.0, 0.0, 0.0, 0.0, 0.0, 1.677182685849834E9, 0.0, 2023-02-23 12:04:45.849
43.0, 12288.564418383172, 18839.234869388925, 0.0, 0.0, 0.0, 0.0, 0.0, 0.0, 0.314, 0.66, -0.67, 192.0, 0.0, 0.0, 0.0, 0.0, 0.0, 0.0, 0.0, 0.0, 0.0, 1.677182685849847E9, 0.0, 2023-02-23 12:04:45.849
44.0, 12296.14165975352, 18847.5497183263, 0.0, 0.0, 0.0, 0.0, 0.0, 0.0, 0.314, 0.66, -0.67, 192.0, 0.0, 0.0, 0.0, 0.0, 0.0, 0.0, 0.0, 0.0, 0.0, 1.677182685855978E9, 0.0, 2023-02-23 12:04:45.855
45.0, 12300.187325499932, 18850.16487242757, 0.0, 0.0, 0.0, 0.0, 0.0, 0.0, 0.314, 0.66, -0.67, 192.0, 0.0, 0.0, 0.0, 0.0, 0.0, 0.0, 0.0, 0.0, 0.0, 1.677182685862784E9, 0.0, 2023-02-23 12:04:45.862
46.0, 12290.330206195142, 18842.431168846033, 0.0, 0.0, 0.0, 0.0, 0.0, 0.0, 0.314, 0.66, -0.67, 192.0, 0.0, 0.0, 0.0, 0.0, 0.0, 0.0, 0.0, 0.0, 0.0, 1.677182685862808E9, 0.0, 2023-02-23 12:04:45.862
47.0, 12283.937607280923, 18832.663456519065, 0.0, 0.0, 0.0, 0.0, 0.0, 0.0, 0.314, 0.66, -0.67, 192.0, 0.0, 0.0, 0.0, 0.0, 0.0, 0.0, 0.0, 0.0, 0.0, 1.677182685870855E9, 0.0, 2023-02-23 12:04:45.870
48.0, 12287.62564511605, 18839.972476955947, 0.0, 0.0, 0.0, 0.0, 0.0, 0.0, 0.308, 0.662, -0.674, 192.0, 9.0, 160.0, 20.0, 176.0, 234.0, 240.0, 0.0, 0.0, 0.0, 1.677182685870898E9, 0.0, 2023-02-23 12:04:45.870
49.0, 12281.165990968466, 18834.004561186382, 0.0, 0.0, 0.0, 0.0, 0.0, 0.0, 0.308, 0.662, -0.674, 192.0, 0.0, 0.0, 0.0, 0.0, 0.0, 0.0, 0.0, 0.0, 0.0, 1.677182685877964E9, 0.0, 2023-02-23 12:04:45.877
50.0, 12271.442982130407, 18823.365130825656, 0.0, 0.0, 0.0, 0.0, 0.0, 0.0, 0.308, 0.662, -0.674, 192.0, 0.0, 0.0, 0.0, 0.0, 0.0, 0.0, 0.0, 0.0, 0.0, 1.677182685877983E9, 0.0, 2023-02-23 12:04:45.877
51.0, 12270.437153629919, 18821.86756394715, 0.0, 0.0, 0.0, 0.0, 0.0, 0.0, 0.308, 0.662, -0.674, 192.0, 0.0, 0.0, 0.0, 0.0, 0.0, 0.0, 0.0, 0.0, 0.0, 1.67718268588542E9, 0.0, 2023-02-23 12:04:45.885
52.0, 12259.618909313549, 18819.185354612513, 0.0, 0.0, 0.0, 0.0, 0.0, 0.0, 0.308, 0.662, -0.674, 192.0, 0.0, 0.0, 0.0, 0.0, 0.0, 0.0, 0.0, 0.0, 0.0, 1.677182685885435E9, 0.0, 2023-02-23 12:04:45.885
53.0, 12247.168987651943, 18814.782060954818, 0.0, 0.0, 0.0, 0.0, 0.0, 0.0, 0.308, 0.662, -0.674, 192.0, 0.0, 0.0, 0.0, 0.0, 0.0, 0.0, 0.0, 0.0, 0.0, 1.677182685893539E9, 0.0, 2023-02-23 12:04:45.893
54.0, 12254.43330459992, 18813.664473732053, 0.0, 0.0, 0.0, 0.0, 0.0, 0.0, 0.308, 0.662, -0.674, 192.0, 0.0, 0.0, 0.0, 0.0, 0.0, 0.0, 0.0, 0.0, 0.0, 1.677182685893552E9, 0.0, 2023-02-23 12:04:45.893
55.0, 12254.098028433089, 18803.360319538155, 0.0, 0.0, 0.0, 0.0, 0.0, 0.0, 0.308, 0.662, -0.674, 192.0, 0.0, 0.0, 0.0, 0.0, 0.0, 0.0, 0.0, 0.0, 0.0, 1.677182685901385E9, 0.0, 2023-02-23 12:04:45.901
56.0, 12230.89691768848, 18783.936653606495, 0.0, 0.0, 0.0, 0.0, 0.0, 0.0, 0.308, 0.662, -0.674, 192.0, 0.0, 0.0, 0.0, 0.0, 0.0, 0.0, 0.0, 0.0, 0.0, 1.677182685901393E9, 0.0, 2023-02-23 12:04:45.901
57.0, 12212.143804090478, 18756.935746304483, 0.0, 0.0, 0.0, 0.0, 0.0, 0.0, 0.308, 0.662, -0.674, 192.0, 0.0, 0.0, 0.0, 0.0, 0.0, 0.0, 0.0, 0.0, 0.0, 1.677182685907977E9, 0.0, 2023-02-23 12:04:45.907
58.0, 12182.281873498187, 18719.04953945274, 0.0, 0.0, 0.0, 0.0, 0.0, 0.0, 0.312, 0.666, -0.674, 192.0, 9.0, 192.0, 20.0, 208.0, 234.0, 240.0, 0.0, 0.0, 0.0, 1.677182685907994E9, 0.0, 2023-02-23 12:04:45.907
59.0, 12161.830027321581, 18699.111783398603, 0.0, 0.0, 0.0, 0.0, 0.0, 0.0, 0.312, 0.666, -0.674, 192.0, 0.0, 0.0, 0.0, 0.0, 0.0, 0.0, 0.0, 0.0, 0.0, 1.677182685915071E9, 0.0, 2023-02-23 12:04:45.915
60.0, 12171.374222203996, 18703.626835778578, 0.0, 0.0, 0.0, 0.0, 0.0, 0.0, 0.312, 0.666, -0.674, 192.0, 0.0, 0.0, 0.0, 0.0, 0.0, 0.0, 0.0, 0.0, 0.0, 1.677182685915096E9, 0.0, 2023-02-23 12:04:45.915
61.0, 12173.095306527055, 18698.21771362039, 0.0, 0.0, 0.0, 0.0, 0.0, 0.0, 0.312, 0.666, -0.674, 192.0, 0.0, 0.0, 0.0, 0.0, 0.0, 0.0, 0.0, 0.0, 0.0, 1.677182685923093E9, 0.0, 2023-02-23 12:04:45.923
62.0, 12153.336364428564, 18668.08756209464, 0.0, 0.0, 0.0, 0.0, 0.0, 0.0, 0.312, 0.666, -0.674, 192.0, 0.0, 0.0, 0.0, 0.0, 0.0, 0.0, 0.0, 0.0, 0.0, 1.677182685930943E9, 0.0, 2023-02-23 12:04:45.930
63.0, 12143.83687303506, 18649.40150373, 0.0, 0.0, 0.0, 0.0, 0.0, 0.0, 0.312, 0.666, -0.674, 192.0, 0.0, 0.0, 0.0, 0.0, 0.0, 0.0, 0.0, 0.0, 0.0, 1.677182685930955E9, 0.0, 2023-02-23 12:04:45.930
64.0, 12155.057448751622, 18657.246966033814, 0.0, 0.0, 0.0, 0.0, 0.0, 0.0, 0.312, 0.666, -0.674, 192.0, 0.0, 0.0, 0.0, 0.0, 0.0, 0.0, 0.0, 0.0, 0.0, 1.677182685937776E9, 0.0, 2023-02-23 12:04:45.937
65.0, 12152.35288767253, 18648.820358374163, 0.0, 0.0, 0.0, 0.0, 0.0, 0.0, 0.312, 0.666, -0.674, 192.0, 0.0, 0.0, 0.0, 0.0, 0.0, 0.0, 0.0, 0.0, 0.0, 1.677182685937794E9, 0.0, 2023-02-23 12:04:45.937
66.0, 12149.60362310453, 18633.93409656693, 0.0, 0.0, 0.0, 0.0, 0.0, 0.0, 0.312, 0.666, -0.674, 192.0, 0.0, 0.0, 0.0, 0.0, 0.0, 0.0, 0.0, 0.0, 0.0, 1.67718268594575E9, 0.0, 2023-02-23 12:04:45.945
67.0, 12154.163378973411, 18631.87773607704, 0.0, 0.0, 0.0, 0.0, 0.0, 0.0, 0.312, 0.666, -0.674, 192.0, 0.0, 0.0, 0.0, 0.0, 0.0, 0.0, 0.0, 0.0, 0.0, 1.677182685945758E9, 0.0, 2023-02-23 12:04:45.945
68.0, 12167.686184368871, 18640.863137348075, 0.0, 0.0, 0.0, 0.0, 0.0, 0.0, 0.316, 0.664, -0.672, 192.0, 9.0, 224.0, 20.0, 192.0, 235.0, 0.0, 0.0, 0.0, 0.0, 1.677182685953651E9, 0.0, 2023-02-23 12:04:45.953
69.0, 12195.715271915828, 18659.951527112906, 0.0, 0.0, 0.0, 0.0, 0.0, 0.0, 0.316, 0.664, -0.672, 192.0, 0.0, 0.0, 0.0, 0.0, 0.0, 0.0, 0.0, 0.0, 0.0, 1.677182685953668E9, 0.0, 2023-02-23 12:04:45.953
70.0, 12195.290588771175, 18652.39663748701, 0.0, 0.0, 0.0, 0.0, 0.0, 0.0, 0.316, 0.664, -0.672, 192.0, 0.0, 0.0, 0.0, 0.0, 0.0, 0.0, 0.0, 0.0, 0.0, 1.677182685960853E9, 0.0, 2023-02-23 12:04:45.960
71.0, 12212.836708168592, 18669.249852806315, 0.0, 0.0, 0.0, 0.0, 0.0, 0.0, 0.316, 0.664, -0.672, 192.0, 0.0, 0.0, 0.0, 0.0, 0.0, 0.0, 0.0, 0.0, 0.0, 1.677182685960875E9, 0.0, 2023-02-23 12:04:45.960
72.0, 12225.711312974849, 18682.16916110148, 0.0, 0.0, 0.0, 0.0, 0.0, 0.0, 0.316, 0.664, -0.672, 192.0, 0.0, 0.0, 0.0, 0.0, 0.0, 0.0, 0.0, 0.0, 0.0, 1.677182685968374E9, 0.0, 2023-02-23 12:04:45.968
73.0, 12230.718103732837, 18676.044783120728, 0.0, 0.0, 0.0, 0.0, 0.0, 0.0, 0.316, 0.664, -0.672, 192.0, 0.0, 0.0, 0.0, 0.0, 0.0, 0.0, 0.0, 0.0, 0.0, 1.677182685968389E9, 0.0, 2023-02-23 12:04:45.968
74.0, 12253.18160691042, 18698.821210720685, 0.0, 0.0, 0.0, 0.0, 0.0, 0.0, 0.316, 0.664, -0.672, 192.0, 0.0, 0.0, 0.0, 0.0, 0.0, 0.0, 0.0, 0.0, 0.0, 1.677182685976282E9, 0.0, 2023-02-23 12:04:45.976
75.0, 12252.958089465868, 18711.740519015853, 0.0, 0.0, 0.0, 0.0, 0.0, 0.0, 0.316, 0.664, -0.672, 192.0, 0.0, 0.0, 0.0, 0.0, 0.0, 0.0, 0.0, 0.0, 0.0, 1.677182685976292E9, 0.0, 2023-02-23 12:04:45.976
76.0, 12259.887130247012, 18715.294446384247, 0.0, 0.0, 0.0, 0.0, 0.0, 0.0, 0.316, 0.664, -0.672, 192.0, 0.0, 0.0, 0.0, 0.0, 0.0, 0.0, 0.0, 0.0, 0.0, 1.677182685983334E9, 0.0, 2023-02-23 12:04:45.983
77.0, 12271.755906552782, 18721.172955175993, 0.0, 0.0, 0.0, 0.0, 0.0, 0.0, 0.314, 0.66, -0.678, 192.0, 9.0, 208.0, 20.0, 160.0, 234.0, 208.0, 0.0, 0.0, 0.0, 1.677182685989914E9, 0.0, 2023-02-23 12:04:45.989
78.0, 12265.050383216188, 18717.149641174037, 0.0, 0.0, 0.0, 0.0, 0.0, 0.0, 0.314, 0.66, -0.678, 192.0, 0.0, 0.0, 0.0, 0.0, 0.0, 0.0, 0.0, 0.0, 0.0, 1.677182685989923E9, 0.0, 2023-02-23 12:04:45.989
79.0, 12269.945415251901, 18727.878478512583, 0.0, 0.0, 0.0, 0.0, 0.0, 0.0, 0.314, 0.66, -0.678, 192.0, 0.0, 0.0, 0.0, 0.0, 0.0, 0.0, 0.0, 0.0, 0.0, 1.677182685997959E9, 0.0, 2023-02-23 12:04:45.997
80.0, 12275.779220554736, 18735.254554182837, 0.0, 0.0, 0.0, 0.0, 0.0, 0.0, 0.314, 0.66, -0.678, 192.0, 0.0, 0.0, 0.0, 0.0, 0.0, 0.0, 0.0, 0.0, 0.0, 1.677182685997975E9, 0.0, 2023-02-23 12:04:45.997
81.0, 12285.926912537447, 18748.71030434493, 0.0, 0.0, 0.0, 0.0, 0.0, 0.0, 0.314, 0.66, -0.678, 192.0, 0.0, 0.0, 0.0, 0.0, 0.0, 0.0, 0.0, 0.0, 0.0, 1.677182686005995E9, 0.0, 2023-02-23 12:04:46.005
82.0, 12296.119308009065, 18756.309897459734, 0.0, 0.0, 0.0, 0.0, 0.0, 0.0, 0.314, 0.66, -0.678, 192.0, 0.0, 0.0, 0.0, 0.0, 0.0, 0.0, 0.0, 0.0, 0.0, 1.67718268600601E9, 0.0, 2023-02-23 12:04:46.006
83.0, 12285.971616026356, 18740.306048429735, 0.0, 0.0, 0.0, 0.0, 0.0, 0.0, 0.314, 0.66, -0.678, 192.0, 0.0, 0.0, 0.0, 0.0, 0.0, 0.0, 0.0, 0.0, 0.0, 1.677182686013149E9, 0.0, 2023-02-23 12:04:46.013
84.0, 12283.468220647363, 18740.216641451912, 0.0, 0.0, 0.0, 0.0, 0.0, 0.0, 0.314, 0.66, -0.678, 192.0, 0.0, 0.0, 0.0, 0.0, 0.0, 0.0, 0.0, 0.0, 0.0, 1.677182686013164E9, 0.0, 2023-02-23 12:04:46.013
85.0, 12293.660616118983, 18751.70543810194, 0.0, 0.0, 0.0, 0.0, 0.0, 0.0, 0.314, 0.66, -0.678, 192.0, 0.0, 0.0, 0.0, 0.0, 0.0, 0.0, 0.0, 0.0, 0.0, 1.677182686020719E9, 0.0, 2023-02-23 12:04:46.020
86.0, 12299.069738277167, 18759.99793529486, 0.0, 0.0, 0.0, 0.0, 0.0, 0.0, 0.314, 0.66, -0.678, 192.0, 0.0, 0.0, 0.0, 0.0, 0.0, 0.0, 0.0, 0.0, 0.0, 1.67718268602073E9, 0.0, 2023-02-23 12:04:46.020
87.0, 12302.757776112292, 18763.641269641073, 0.0, 0.0, 0.0, 0.0, 0.0, 0.0, 0.316, 0.66, -0.684, 192.0, 9.0, 224.0, 20.0, 160.0, 234.0, 160.0, 0.0, 0.0, 0.0, 1.677182686028623E9, 0.0, 2023-02-23 12:04:46.028
88.0, 12301.930761567446, 18758.94740330546, 0.0, 0.0, 0.0, 0.0, 0.0, 0.0, 0.316, 0.66, -0.684, 192.0, 0.0, 0.0, 0.0, 0.0, 0.0, 0.0, 0.0, 0.0, 0.0, 1.677182686028634E9, 0.0, 2023-02-23 12:04:46.028
89.0, 12309.083319793144, 18765.384705708588, 0.0, 0.0, 0.0, 0.0, 0.0, 0.0, 0.316, 0.66, -0.684, 192.0, 0.0, 0.0, 0.0, 0.0, 0.0, 0.0, 0.0, 0.0, 0.0, 1.677182686036638E9, 0.0, 2023-02-23 12:04:46.036
90.0, 12317.86755536408, 18770.503255188854, 0.0, 0.0, 0.0, 0.0, 0.0, 0.0, 0.316, 0.66, -0.684, 192.0, 0.0, 0.0, 0.0, 0.0, 0.0, 0.0, 0.0, 0.0, 0.0, 1.677182686036647E9, 0.0, 2023-02-23 12:04:46.036
91.0, 12318.96279084239, 18769.743295877375, 0.0, 0.0, 0.0, 0.0, 0.0, 0.0, 0.316, 0.66, -0.684, 192.0, 0.0, 0.0, 0.0, 0.0, 0.0, 0.0, 0.0, 0.0, 0.0, 1.677182686042848E9, 0.0, 2023-02-23 12:04:46.042
92.0, 12322.092035066133, 18777.14172329208, 0.0, 0.0, 0.0, 0.0, 0.0, 0.0, 0.316, 0.66, -0.684, 192.0, 0.0, 0.0, 0.0, 0.0, 0.0, 0.0, 0.0, 0.0, 0.0, 1.677182686050204E9, 0.0, 2023-02-23 12:04:46.050
93.0, 12326.24945953482, 18786.216531540937, 0.0, 0.0, 0.0, 0.0, 0.0, 0.0, 0.316, 0.66, -0.684, 192.0, 0.0, 0.0, 0.0, 0.0, 0.0, 0.0, 0.0, 0.0, 0.0, 1.677182686050218E9, 0.0, 2023-02-23 12:04:46.050
94.0, 12326.830604890658, 18786.10477281866, 0.0, 0.0, 0.0, 0.0, 0.0, 0.0, 0.316, 0.66, -0.684, 192.0, 0.0, 0.0, 0.0, 0.0, 0.0, 0.0, 0.0, 0.0, 0.0, 1.677182686058275E9, 0.0, 2023-02-23 12:04:46.058
95.0, 12327.232936290853, 18781.70147916096, 0.0, 0.0, 0.0, 0.0, 0.0, 0.0, 0.316, 0.66, -0.684, 192.0, 0.0, 0.0, 0.0, 0.0, 0.0, 0.0, 0.0, 0.0, 0.0, 1.67718268605829E9, 0.0, 2023-02-23 12:04:46.058
96.0, 12327.38939850204, 18778.61693842613, 0.0, 0.0, 0.0, 0.0, 0.0, 0.0, 0.316, 0.66, -0.684, 192.0, 0.0, 0.0, 0.0, 0.0, 0.0, 0.0, 0.0, 0.0, 0.0, 1.677182686066334E9, 0.0, 2023-02-23 12:04:46.066
97.0, 12324.81894788968, 18776.985261080892, 0.0, 0.0, 0.0, 0.0, 0.0, 0.0, 0.32, 0.666, -0.6880000000000001, 192.0, 10.0, 0.0, 20.0, 208.0, 234.0, 128.0, 0.0, 0.0, 0.0, 1.677182686066346E9, 0.0, 2023-02-23 12:04:46.066
98.0, 12333.089093338143, 18785.81420014074, 0.0, 0.0, 0.0, 0.0, 0.0, 0.0, 0.32, 0.666, -0.6880000000000001, 192.0, 0.0, 0.0, 0.0, 0.0, 0.0, 0.0, 0.0, 0.0, 0.0, 1.677182686072855E9, 0.0, 2023-02-23 12:04:46.072
99.0, 12332.642058449037, 18782.439086727987, 0.0, 0.0, 0.0, 0.0, 0.0, 0.0, 0.32, 0.666, -0.6880000000000001, 192.0, 0.0, 0.0, 0.0, 0.0, 0.0, 0.0, 0.0, 0.0, 0.0, 1.677182686072865E9, 0.0, 2023-02-23 12:04:46.072
100.0, 12321.82381413267, 18775.308880246746, 0.0, 0.0, 0.0, 0.0, 0.0, 0.0, 0.32, 0.666, -0.6880000000000001, 192.0, 0.0, 0.0, 0.0, 0.0, 0.0, 0.0, 0.0, 0.0, 0.0, 1.677182686080826E9, 0.0, 2023-02-23 12:04:46.080
101.0, 12318.985142586846, 18776.851150614162, 0.0, 0.0, 0.0, 0.0, 0.0, 0.0, 0.32, 0.666, -0.6880000000000001, 192.0, 0.0, 0.0, 0.0, 0.0, 0.0, 0.0, 0.0, 0.0, 0.0, 1.677182686080863E9, 0.0, 2023-02-23 12:04:46.080
102.0, 12326.96471535739, 18784.04841232877, 0.0, 0.0, 0.0, 0.0, 0.0, 0.0, 0.32, 0.666, -0.6880000000000001, 192.0, 0.0, 0.0, 0.0, 0.0, 0.0, 0.0, 0.0, 0.0, 0.0, 1.677182686088981E9, 0.0, 2023-02-23 12:04:46.088
103.0, 12336.486558495351, 18785.47892397391, 0.0, 0.0, 0.0, 0.0, 0.0, 0.0, 0.32, 0.666, -0.6880000000000001, 192.0, 0.0, 0.0, 0.0, 0.0, 0.0, 0.0, 0.0, 0.0, 0.0, 1.677182686088997E9, 0.0, 2023-02-23 12:04:46.088
104.0, 12339.481692252362, 18786.41769724103, 0.0, 0.0, 0.0, 0.0, 0.0, 0.0, 0.32, 0.666, -0.6880000000000001, 192.0, 0.0, 0.0, 0.0, 0.0, 0.0, 0.0, 0.0, 0.0, 0.0, 1.677182686096118E9, 0.0, 2023-02-23 12:04:46.096
105.0, 12343.0132678763, 18787.088249574692, 0.0, 0.0, 0.0, 0.0, 0.0, 0.0, 0.32, 0.666, -0.6880000000000001, 192.0, 0.0, 0.0, 0.0, 0.0, 0.0, 0.0, 0.0, 0.0, 0.0, 1.677182686096133E9, 0.0, 2023-02-23 12:04:46.096
106.0, 12343.370895787584, 18786.954139107962, 0.0, 0.0, 0.0, 0.0, 0.0, 0.0, 0.32, 0.666, -0.6880000000000001, 192.0, 0.0, 0.0, 0.0, 0.0, 0.0, 0.0, 0.0, 0.0, 0.0, 1.67718268610255E9, 0.0, 2023-02-23 12:04:46.102
107.0, 12347.662430723005, 18791.513894976844, 0.0, 0.0, 0.0, 0.0, 0.0, 0.0, 0.34, 0.666, -0.682, 192.0, 10.0, 160.0, 20.0, 208.0, 234.0, 176.0, 0.0, 0.0, 0.0, 1.677182686110542E9, 0.0, 2023-02-23 12:04:46.110
108.0, 12345.382552788562, 18791.089211832194, 0.0, 0.0, 0.0, 0.0, 0.0, 0.0, 0.34, 0.666, -0.682, 192.0, 0.0, 0.0, 0.0, 0.0, 0.0, 0.0, 0.0, 0.0, 0.0, 1.677182686110554E9, 0.0, 2023-02-23 12:04:46.110
109.0, 12342.20860507591, 18789.077554831216, 0.0, 0.0, 0.0, 0.0, 0.0, 0.0, 0.34, 0.666, -0.682, 192.0, 0.0, 0.0, 0.0, 0.0, 0.0, 0.0, 0.0, 0.0, 0.0, 1.677182686118638E9, 0.0, 2023-02-23 12:04:46.118
110.0, 12352.49040752535, 18791.62565369912, 0.0, 0.0, 0.0, 0.0, 0.0, 0.0, 0.34, 0.666, -0.682, 192.0, 0.0, 0.0, 0.0, 0.0, 0.0, 0.0, 0.0, 0.0, 0.0, 1.677182686118648E9, 0.0, 2023-02-23 12:04:46.118
111.0, 12364.560349531217, 18799.58287472521, 0.0, 0.0, 0.0, 0.0, 0.0, 0.0, 0.34, 0.666, -0.682, 192.0, 0.0, 0.0, 0.0, 0.0, 0.0, 0.0, 0.0, 0.0, 0.0, 1.677182686125772E9, 0.0, 2023-02-23 12:04:46.125
112.0, 12351.618689491594, 18789.546941464778, 0.0, 0.0, 0.0, 0.0, 0.0, 0.0, 0.34, 0.666, -0.682, 192.0, 0.0, 0.0, 0.0, 0.0, 0.0, 0.0, 0.0, 0.0, 0.0, 1.677182686125786E9, 0.0, 2023-02-23 12:04:46.125
113.0, 12339.928727141469, 18777.499351203365, 0.0, 0.0, 0.0, 0.0, 0.0, 0.0, 0.34, 0.666, -0.682, 192.0, 0.0, 0.0, 0.0, 0.0, 0.0, 0.0, 0.0, 0.0, 0.0, 1.677182686133144E9, 0.0, 2023-02-23 12:04:46.133
114.0, 12346.969526644889, 18783.19904603947, 0.0, 0.0, 0.0, 0.0, 0.0, 0.0, 0.34, 0.666, -0.682, 192.0, 0.0, 0.0, 0.0, 0.0, 0.0, 0.0, 0.0, 0.0, 0.0, 1.67718268613316E9, 0.0, 2023-02-23 12:04:46.133
115.0, 12352.736276714359, 18786.66356643004, 0.0, 0.0, 0.0, 0.0, 0.0, 0.0, 0.34, 0.666, -0.682, 192.0, 0.0, 0.0, 0.0, 0.0, 0.0, 0.0, 0.0, 0.0, 0.0, 1.677182686141152E9, 0.0, 2023-02-23 12:04:46.141
116.0, 12364.046259408744, 18794.352566522666, 0.0, 0.0, 0.0, 0.0, 0.0, 0.0, 0.34, 0.666, -0.682, 192.0, 0.0, 0.0, 0.0, 0.0, 0.0, 0.0, 0.0, 0.0, 0.0, 1.67718268614117E9, 0.0, 2023-02-23 12:04:46.141
117.0, 12377.010271192823, 18807.361281795656, 0.0, 0.0, 0.0, 0.0, 0.0, 0.0, 0.342, 0.67, -0.67, 192.0, 10.0, 176.0, 20.0, 240.0, 235.0, 16.0, 0.0, 0.0, 0.0, 1.677182686149176E9, 0.0, 2023-02-23 12:04:46.149
118.0, 12368.516608299806, 18806.109584106158, 0.0, 0.0, 0.0, 0.0, 0.0, 0.0, 0.342, 0.67, -0.67, 192.0, 0.0, 0.0, 0.0, 0.0, 0.0, 0.0, 0.0, 0.0, 0.0, 1.677182686149212E9, 0.0, 2023-02-23 12:04:46.149
119.0, 12352.713924969903, 18792.20679905496, 0.0, 0.0, 0.0, 0.0, 0.0, 0.0, 0.342, 0.67, -0.67, 192.0, 0.0, 0.0, 0.0, 0.0, 0.0, 0.0, 0.0, 0.0, 0.0, 1.677182686155832E9, 0.0, 2023-02-23 12:04:46.155
120.0, 12344.220262076888, 18786.261235029848, 0.0, 0.0, 0.0, 0.0, 0.0, 0.0, 0.342, 0.67, -0.67, 192.0, 0.0, 0.0, 0.0, 0.0, 0.0, 0.0, 0.0, 0.0, 0.0, 1.677182686155845E9, 0.0, 2023-02-23 12:04:46.155
121.0, 12336.799482917724, 18784.3836884956, 0.0, 0.0, 0.0, 0.0, 0.0, 0.0, 0.342, 0.67, -0.67, 192.0, 0.0, 0.0, 0.0, 0.0, 0.0, 0.0, 0.0, 0.0, 0.0, 1.677182686162825E9, 0.0, 2023-02-23 12:04:46.162
122.0, 12335.212509061397, 18790.39630775408, 0.0, 0.0, 0.0, 0.0, 0.0, 0.0, 0.342, 0.67, -0.67, 192.0, 0.0, 0.0, 0.0, 0.0, 0.0, 0.0, 0.0, 0.0, 0.0, 1.677182686162834E9, 0.0, 2023-02-23 12:04:46.162
123.0, 12335.39132301704, 18795.738374678895, 0.0, 0.0, 0.0, 0.0, 0.0, 0.0, 0.342, 0.67, -0.67, 192.0, 0.0, 0.0, 0.0, 0.0, 0.0, 0.0, 0.0, 0.0, 0.0, 1.677182686170924E9, 0.0, 2023-02-23 12:04:46.170
124.0, 12324.215450789387, 18787.065897830238, 0.0, 0.0, 0.0, 0.0, 0.0, 0.0, 0.342, 0.67, -0.67, 192.0, 0.0, 0.0, 0.0, 0.0, 0.0, 0.0, 0.0, 0.0, 0.0, 1.677182686177854E9, 0.0, 2023-02-23 12:04:46.177
125.0, 12314.179517528954, 18781.880293116606, 0.0, 0.0, 0.0, 0.0, 0.0, 0.0, 0.342, 0.67, -0.67, 192.0, 0.0, 0.0, 0.0, 0.0, 0.0, 0.0, 0.0, 0.0, 0.0, 1.677182686177872E9, 0.0, 2023-02-23 12:04:46.177
126.0, 12312.413729716985, 18783.57902569521, 0.0, 0.0, 0.0, 0.0, 0.0, 0.0, 0.342, 0.67, -0.67, 192.0, 0.0, 0.0, 0.0, 0.0, 0.0, 0.0, 0.0, 0.0, 0.0, 1.677182686185471E9, 0.0, 2023-02-23 12:04:46.185
127.0, 12315.431215218452, 18792.452668243965, 0.0, 0.0, 0.0, 0.0, 0.0, 0.0, 0.34400000000000003, 0.666, -0.66, 192.0, 10.0, 192.0, 20.0, 208.0, 235.0, 96.0, 0.0, 0.0, 0.0, 1.677182686185489E9, 0.0, 2023-02-23 12:04:46.185
128.0, 12310.983218071846, 18792.85499964416, 0.0, 0.0, 0.0, 0.0, 0.0, 0.0, 0.34400000000000003, 0.666, -0.66, 192.0, 0.0, 0.0, 0.0, 0.0, 0.0, 0.0, 0.0, 0.0, 0.0, 1.677182686193502E9, 0.0, 2023-02-23 12:04:46.193
129.0, 12298.57799989915, 18780.51683670483, 0.0, 0.0, 0.0, 0.0, 0.0, 0.0, 0.34400000000000003, 0.666, -0.66, 192.0, 0.0, 0.0, 0.0, 0.0, 0.0, 0.0, 0.0, 0.0, 0.0, 1.677182686193516E9, 0.0, 2023-02-23 12:04:46.193
130.0, 12313.15133728401, 18797.19123806849, 0.0, 0.0, 0.0, 0.0, 0.0, 0.0, 0.34400000000000003, 0.666, -0.66, 192.0, 0.0, 0.0, 0.0, 0.0, 0.0, 0.0, 0.0, 0.0, 0.0, 1.677182686201497E9, 0.0, 2023-02-23 12:04:46.201
131.0, 12325.355389756607, 18808.568275996244, 0.0, 0.0, 0.0, 0.0, 0.0, 0.0, 0.34400000000000003, 0.666, -0.66, 192.0, 0.0, 0.0, 0.0, 0.0, 0.0, 0.0, 0.0, 0.0, 0.0, 1.67718268620151E9, 0.0, 2023-02-23 12:04:46.201
132.0, 12323.254325777809, 18807.093060862193, 0.0, 0.0, 0.0, 0.0, 0.0, 0.0, 0.34400000000000003, 0.666, -0.66, 192.0, 0.0, 0.0, 0.0, 0.0, 0.0, 0.0, 0.0, 0.0, 0.0, 1.67718268620796E9, 0.0, 2023-02-23 12:04:46.207
133.0, 12321.756758899302, 18806.37780503962, 0.0, 0.0, 0.0, 0.0, 0.0, 0.0, 0.34400000000000003, 0.666, -0.66, 192.0, 0.0, 0.0, 0.0, 0.0, 0.0, 0.0, 0.0, 0.0, 0.0, 1.677182686207968E9, 0.0, 2023-02-23 12:04:46.207
134.0, 12320.48270946535, 18800.700461947974, 0.0, 0.0, 0.0, 0.0, 0.0, 0.0, 0.34400000000000003, 0.666, -0.66, 192.0, 0.0, 0.0, 0.0, 0.0, 0.0, 0.0, 0.0, 0.0, 0.0, 1.677182686216107E9, 0.0, 2023-02-23 12:04:46.216
135.0, 12321.265020521287, 18798.487639246898, 0.0, 0.0, 0.0, 0.0, 0.0, 0.0, 0.34400000000000003, 0.666, -0.66, 192.0, 0.0, 0.0, 0.0, 0.0, 0.0, 0.0, 0.0, 0.0, 0.0, 1.67718268621615E9, 0.0, 2023-02-23 12:04:46.216
136.0, 12335.458378250407, 18809.86467717465, 0.0, 0.0, 0.0, 0.0, 0.0, 0.0, 0.34400000000000003, 0.666, -0.66, 192.0, 0.0, 0.0, 0.0, 0.0, 0.0, 0.0, 0.0, 0.0, 0.0, 1.677182686224001E9, 0.0, 2023-02-23 12:04:46.224
137.0, 12340.398113775029, 18813.977398154428, 0.0, 0.0, 0.0, 0.0, 0.0, 0.0, 0.34, 0.67, -0.664, 192.0, 10.0, 160.0, 20.0, 240.0, 235.0, 64.0, 0.0, 0.0, 0.0, 1.677182686224016E9, 0.0, 2023-02-23 12:04:46.224
138.0, 12335.190157316943, 18812.502183020377, 0.0, 0.0, 0.0, 0.0, 0.0, 0.0, 0.34, 0.67, -0.664, 192.0, 0.0, 0.0, 0.0, 0.0, 0.0, 0.0, 0.0, 0.0, 0.0, 1.677182686231183E9, 0.0, 2023-02-23 12:04:46.231
139.0, 12329.736331669848, 18806.266046317345, 0.0, 0.0, 0.0, 0.0, 0.0, 0.0, 0.34, 0.67, -0.664, 192.0, 0.0, 0.0, 0.0, 0.0, 0.0, 0.0, 0.0, 0.0, 0.0, 1.677182686237771E9, 0.0, 2023-02-23 12:04:46.237
140.0, 12335.123102083577, 18810.53522950831, 0.0, 0.0, 0.0, 0.0, 0.0, 0.0, 0.34, 0.67, -0.664, 192.0, 0.0, 0.0, 0.0, 0.0, 0.0, 0.0, 0.0, 0.0, 0.0, 1.677182686237783E9, 0.0, 2023-02-23 12:04:46.237
141.0, 12336.486558495351, 18815.899648177583, 0.0, 0.0, 0.0, 0.0, 0.0, 0.0, 0.34, 0.67, -0.664, 192.0, 0.0, 0.0, 0.0, 0.0, 0.0, 0.0, 0.0, 0.0, 0.0, 1.677182686245812E9, 0.0, 2023-02-23 12:04:46.245
142.0, 12325.735369412349, 18805.14845909458, 0.0, 0.0, 0.0, 0.0, 0.0, 0.0, 0.34, 0.67, -0.664, 192.0, 0.0, 0.0, 0.0, 0.0, 0.0, 0.0, 0.0, 0.0, 0.0, 1.677182686245824E9, 0.0, 2023-02-23 12:04:46.245
143.0, 12328.350523513618, 18808.00948238486, 0.0, 0.0, 0.0, 0.0, 0.0, 0.0, 0.34, 0.67, -0.664, 192.0, 0.0, 0.0, 0.0, 0.0, 0.0, 0.0, 0.0, 0.0, 0.0, 1.677182686253711E9, 0.0, 2023-02-23 12:04:46.253
144.0, 12338.989953874345, 18817.352511567176, 0.0, 0.0, 0.0, 0.0, 0.0, 0.0, 0.34, 0.67, -0.664, 192.0, 0.0, 0.0, 0.0, 0.0, 0.0, 0.0, 0.0, 0.0, 0.0, 1.67718268625372E9, 0.0, 2023-02-23 12:04:46.253
145.0, 12342.812102176202, 18819.788851712805, 0.0, 0.0, 0.0, 0.0, 0.0, 0.0, 0.34, 0.67, -0.664, 192.0, 0.0, 0.0, 0.0, 0.0, 0.0, 0.0, 0.0, 0.0, 0.0, 1.677182686260854E9, 0.0, 2023-02-23 12:04:46.260
146.0, 12340.0628376082, 18815.989055155405, 0.0, 0.0, 0.0, 0.0, 0.0, 0.0, 0.34, 0.67, -0.664, 192.0, 0.0, 0.0, 0.0, 0.0, 0.0, 0.0, 0.0, 0.0, 0.0, 1.677182686260874E9, 0.0, 2023-02-23 12:04:46.260
147.0, 12327.635267691048, 18803.986168382904, 0.0, 0.0, 0.0, 0.0, 0.0, 0.0, 0.336, 0.682, -0.666, 192.0, 10.0, 128.0, 21.0, 80.0, 235.0, 48.0, 0.0, 0.0, 0.0, 1.677182686268252E9, 0.0, 2023-02-23 12:04:46.268
148.0, 12338.095884096132, 18815.58672375521, 0.0, 0.0, 0.0, 0.0, 0.0, 0.0, 0.336, 0.682, -0.666, 192.0, 0.0, 0.0, 0.0, 0.0, 0.0, 0.0, 0.0, 0.0, 0.0, 1.67718268626827E9, 0.0, 2023-02-23 12:04:46.268
149.0, 12340.264003308297, 18814.737357465907, 0.0, 0.0, 0.0, 0.0, 0.0, 0.0, 0.336, 0.682, -0.666, 192.0, 0.0, 0.0, 0.0, 0.0, 0.0, 0.0, 0.0, 0.0, 0.0, 1.677182686276327E9, 0.0, 2023-02-23 12:04:46.276
150.0, 12336.35244802862, 18810.11054636366, 0.0, 0.0, 0.0, 0.0, 0.0, 0.0, 0.336, 0.682, -0.666, 192.0, 0.0, 0.0, 0.0, 0.0, 0.0, 0.0, 0.0, 0.0, 0.0, 1.677182686276342E9, 0.0, 2023-02-23 12:04:46.276
151.0, 12332.44089274894, 18805.841363172694, 0.0, 0.0, 0.0, 0.0, 0.0, 0.0, 0.336, 0.682, -0.666, 192.0, 0.0, 0.0, 0.0, 0.0, 0.0, 0.0, 0.0, 0.0, 0.0, 1.677182686284245E9, 0.0, 2023-02-23 12:04:46.284
152.0, 12338.25234630732, 18811.205781841967, 0.0, 0.0, 0.0, 0.0, 0.0, 0.0, 0.336, 0.682, -0.666, 192.0, 0.0, 0.0, 0.0, 0.0, 0.0, 0.0, 0.0, 0.0, 0.0, 1.677182686284278E9, 0.0, 2023-02-23 12:04:46.284
153.0, 12350.478750524373, 18822.426357558532, 0.0, 0.0, 0.0, 0.0, 0.0, 0.0, 0.336, 0.682, -0.666, 192.0, 0.0, 0.0, 0.0, 0.0, 0.0, 0.0, 0.0, 0.0, 0.0, 1.677182686290431E9, 0.0, 2023-02-23 12:04:46.290
154.0, 12346.120160355587, 18819.72179647944, 0.0, 0.0, 0.0, 0.0, 0.0, 0.0, 0.336, 0.682, -0.666, 192.0, 0.0, 0.0, 0.0, 0.0, 0.0, 0.0, 0.0, 0.0, 0.0, 1.677182686297916E9, 0.0, 2023-02-23 12:04:46.297
155.0, 12343.616764976594, 18819.96766566845, 0.0, 0.0, 0.0, 0.0, 0.0, 0.0, 0.336, 0.682, -0.666, 192.0, 0.0, 0.0, 0.0, 0.0, 0.0, 0.0, 0.0, 0.0, 0.0, 1.677182686297924E9, 0.0, 2023-02-23 12:04:46.297
156.0, 12361.49816054084, 18832.976380941436, 0.0, 0.0, 0.0, 0.0, 0.0, 0.0, 0.324, 0.684, -0.654, 192.0, 10.0, 32.0, 21.0, 96.0, 235.0, 144.0, 0.0, 0.0, 0.0, 1.677182686305933E9, 0.0, 2023-02-23 12:04:46.305
157.0, 12365.275605353787, 18827.3437413387, 0.0, 0.0, 0.0, 0.0, 0.0, 0.0, 0.324, 0.684, -0.654, 192.0, 0.0, 0.0, 0.0, 0.0, 0.0, 0.0, 0.0, 0.0, 0.0, 1.677182686305954E9, 0.0, 2023-02-23 12:04:46.305
158.0, 12334.67606719447, 18793.48084848891, 0.0, 0.0, 0.0, 0.0, 0.0, 0.0, 0.324, 0.684, -0.654, 192.0, 0.0, 0.0, 0.0, 0.0, 0.0, 0.0, 0.0, 0.0, 0.0, 1.677182686313979E9, 0.0, 2023-02-23 12:04:46.313
159.0, 12330.742160170337, 18785.47892397391, 0.0, 0.0, 0.0, 0.0, 0.0, 0.0, 0.324, 0.684, -0.654, 192.0, 0.0, 0.0, 0.0, 0.0, 0.0, 0.0, 0.0, 0.0, 0.0, 1.677182686313994E9, 0.0, 2023-02-23 12:04:46.313
160.0, 12339.213471318899, 18788.138781564092, 0.0, 0.0, 0.0, 0.0, 0.0, 0.0, 0.324, 0.684, -0.654, 192.0, 0.0, 0.0, 0.0, 0.0, 0.0, 0.0, 0.0, 0.0, 0.0, 1.677182686320728E9, 0.0, 2023-02-23 12:04:46.320
161.0, 12341.15807308651, 18783.802543139762, 0.0, 0.0, 0.0, 0.0, 0.0, 0.0, 0.324, 0.684, -0.654, 192.0, 0.0, 0.0, 0.0, 0.0, 0.0, 0.0, 0.0, 0.0, 0.0, 1.677182686320746E9, 0.0, 2023-02-23 12:04:46.320
162.0, 12335.68189569496, 18775.62180466912, 0.0, 0.0, 0.0, 0.0, 0.0, 0.0, 0.324, 0.684, -0.654, 192.0, 0.0, 0.0, 0.0, 0.0, 0.0, 0.0, 0.0, 0.0, 0.0, 1.677182686328641E9, 0.0, 2023-02-23 12:04:46.328
163.0, 12332.910279382502, 18768.55865342124, 0.0, 0.0, 0.0, 0.0, 0.0, 0.0, 0.324, 0.684, -0.654, 192.0, 0.0, 0.0, 0.0, 0.0, 0.0, 0.0, 0.0, 0.0, 0.0, 1.677182686328655E9, 0.0, 2023-02-23 12:04:46.328
164.0, 12337.559442229205, 18762.076647529204, 0.0, 0.0, 0.0, 0.0, 0.0, 0.0, 0.324, 0.684, -0.654, 192.0, 0.0, 0.0, 0.0, 0.0, 0.0, 0.0, 0.0, 0.0, 0.0, 1.677182686337961E9, 0.0, 2023-02-23 12:04:46.337
165.0, 12336.844186406635, 18750.677257856998, 0.0, 0.0, 0.0, 0.0, 0.0, 0.0, 0.324, 0.684, -0.654, 192.0, 0.0, 0.0, 0.0, 0.0, 0.0, 0.0, 0.0, 0.0, 0.0, 1.677182686337973E9, 0.0, 2023-02-23 12:04:46.337
166.0, 12337.447683506929, 18750.252574712347, 0.0, 0.0, 0.0, 0.0, 0.0, 0.0, 0.312, 0.686, -0.656, 192.0, 9.0, 192.0, 21.0, 112.0, 235.0, 128.0, 0.0, 0.0, 0.0, 1.677182686344155E9, 0.0, 2023-02-23 12:04:46.344
167.0, 12330.943325870434, 18742.340057175166, 0.0, 0.0, 0.0, 0.0, 0.0, 0.0, 0.312, 0.686, -0.656, 192.0, 0.0, 0.0, 0.0, 0.0, 0.0, 0.0, 0.0, 0.0, 0.0, 1.677182686344169E9, 0.0, 2023-02-23 12:04:46.344
168.0, 12338.341753285142, 18748.978525278395, 0.0, 0.0, 0.0, 0.0, 0.0, 0.0, 0.312, 0.686, -0.656, 192.0, 0.0, 0.0, 0.0, 0.0, 0.0, 0.0, 0.0, 0.0, 0.0, 1.677182686350411E9, 0.0, 2023-02-23 12:04:46.350
169.0, 12354.882044182068, 18763.19423475197, 0.0, 0.0, 0.0, 0.0, 0.0, 0.0, 0.312, 0.686, -0.656, 192.0, 0.0, 0.0, 0.0, 0.0, 0.0, 0.0, 0.0, 0.0, 0.0, 1.677182686358212E9, 0.0, 2023-02-23 12:04:46.358
170.0, 12356.670183738494, 18763.708324874442, 0.0, 0.0, 0.0, 0.0, 0.0, 0.0, 0.312, 0.686, -0.656, 192.0, 0.0, 0.0, 0.0, 0.0, 0.0, 0.0, 0.0, 0.0, 0.0, 1.677182686358228E9, 0.0, 2023-02-23 12:04:46.358
171.0, 12343.192081831943, 18749.447911911957, 0.0, 0.0, 0.0, 0.0, 0.0, 0.0, 0.312, 0.686, -0.656, 192.0, 0.0, 0.0, 0.0, 0.0, 0.0, 0.0, 0.0, 0.0, 0.0, 1.677182686366259E9, 0.0, 2023-02-23 12:04:46.366
172.0, 12334.67606719447, 18743.368237420113, 0.0, 0.0, 0.0, 0.0, 0.0, 0.0, 0.312, 0.686, -0.656, 192.0, 0.0, 0.0, 0.0, 0.0, 0.0, 0.0, 0.0, 0.0, 0.0, 1.677182686366273E9, 0.0, 2023-02-23 12:04:46.366
173.0, 12337.87236665158, 18744.821100809706, 0.0, 0.0, 0.0, 0.0, 0.0, 0.0, 0.312, 0.686, -0.656, 192.0, 0.0, 0.0, 0.0, 0.0, 0.0, 0.0, 0.0, 0.0, 0.0, 1.677182686372919E9, 0.0, 2023-02-23 12:04:46.372
174.0, 12346.231919077865, 18753.247708469356, 0.0, 0.0, 0.0, 0.0, 0.0, 0.0, 0.312, 0.686, -0.656, 192.0, 0.0, 0.0, 0.0, 0.0, 0.0, 0.0, 0.0, 0.0, 0.0, 1.677182686372932E9, 0.0, 2023-02-23 12:04:46.372
175.0, 12353.943270914946, 18761.00376379535, 0.0, 0.0, 0.0, 0.0, 0.0, 0.0, 0.312, 0.686, -0.656, 192.0, 0.0, 0.0, 0.0, 0.0, 0.0, 0.0, 0.0, 0.0, 0.0, 1.677182686380911E9, 0.0, 2023-02-23 12:04:46.380
176.0, 12351.082247624667, 18758.433313182988, 0.0, 0.0, 0.0, 0.0, 0.0, 0.0, 0.314, 0.684, -0.662, 192.0, 9.0, 208.0, 21.0, 96.0, 235.0, 80.0, 0.0, 0.0, 0.0, 1.677182686380922E9, 0.0, 2023-02-23 12:04:46.380
177.0, 12358.838302950657, 18765.496464430867, 0.0, 0.0, 0.0, 0.0, 0.0, 0.0, 0.314, 0.684, -0.662, 192.0, 0.0, 0.0, 0.0, 0.0, 0.0, 0.0, 0.0, 0.0, 0.0, 1.677182686388922E9, 0.0, 2023-02-23 12:04:46.388
178.0, 12366.840227465658, 18775.219473268924, 0.0, 0.0, 0.0, 0.0, 0.0, 0.0, 0.314, 0.684, -0.662, 192.0, 0.0, 0.0, 0.0, 0.0, 0.0, 0.0, 0.0, 0.0, 0.0, 1.67718268638894E9, 0.0, 2023-02-23 12:04:46.388
179.0, 12359.35239307313, 18767.597528409664, 0.0, 0.0, 0.0, 0.0, 0.0, 0.0, 0.314, 0.684, -0.662, 192.0, 0.0, 0.0, 0.0, 0.0, 0.0, 0.0, 0.0, 0.0, 0.0, 1.677182686396049E9, 0.0, 2023-02-23 12:04:46.396
180.0, 12354.569119759693, 18763.261289985334, 0.0, 0.0, 0.0, 0.0, 0.0, 0.0, 0.314, 0.684, -0.662, 192.0, 0.0, 0.0, 0.0, 0.0, 0.0, 0.0, 0.0, 0.0, 0.0, 1.677182686396067E9, 0.0, 2023-02-23 12:04:46.396
181.0, 12356.670183738494, 18766.122313275613, 0.0, 0.0, 0.0, 0.0, 0.0, 0.0, 0.314, 0.684, -0.662, 192.0, 0.0, 0.0, 0.0, 0.0, 0.0, 0.0, 0.0, 0.0, 0.0, 1.677182686404967E9, 0.0, 2023-02-23 12:04:46.404
182.0, 12356.223148849387, 18769.6315371551, 0.0, 0.0, 0.0, 0.0, 0.0, 0.0, 0.314, 0.684, -0.662, 192.0, 0.0, 0.0, 0.0, 0.0, 0.0, 0.0, 0.0, 0.0, 0.0, 1.677182686404988E9, 0.0, 2023-02-23 12:04:46.404
183.0, 12350.143474357543, 18763.462455685432, 0.0, 0.0, 0.0, 0.0, 0.0, 0.0, 0.314, 0.684, -0.662, 192.0, 0.0, 0.0, 0.0, 0.0, 0.0, 0.0, 0.0, 0.0, 0.0, 1.677182686411026E9, 0.0, 2023-02-23 12:04:46.411
184.0, 12354.345602315141, 18766.748162120362, 0.0, 0.0, 0.0, 0.0, 0.0, 0.0, 0.314, 0.684, -0.662, 192.0, 0.0, 0.0, 0.0, 0.0, 0.0, 0.0, 0.0, 0.0, 0.0, 1.677182686411037E9, 0.0, 2023-02-23 12:04:46.411
185.0, 12354.680878481971, 18767.172845265013, 0.0, 0.0, 0.0, 0.0, 0.0, 0.0, 0.314, 0.684, -0.662, 192.0, 0.0, 0.0, 0.0, 0.0, 0.0, 0.0, 0.0, 0.0, 0.0, 1.677182686418573E9, 0.0, 2023-02-23 12:04:46.418
186.0, 12358.078343639178, 18769.117447032626, 0.0, 0.0, 0.0, 0.0, 0.0, 0.0, 0.312, 0.678, -0.674, 192.0, 9.0, 192.0, 21.0, 48.0, 234.0, 240.0, 0.0, 0.0, 0.0, 1.677182686425687E9, 0.0, 2023-02-23 12:04:46.425
187.0, 12355.709058726914, 18767.865749343127, 0.0, 0.0, 0.0, 0.0, 0.0, 0.0, 0.312, 0.678, -0.674, 192.0, 0.0, 0.0, 0.0, 0.0, 0.0, 0.0, 0.0, 0.0, 0.0, 1.677182686425697E9, 0.0, 2023-02-23 12:04:46.425
188.0, 12354.613823248605, 18771.307917989245, 0.0, 0.0, 0.0, 0.0, 0.0, 0.0, 0.312, 0.678, -0.674, 192.0, 0.0, 0.0, 0.0, 0.0, 0.0, 0.0, 0.0, 0.0, 0.0, 1.677182686433549E9, 0.0, 2023-02-23 12:04:46.433
189.0, 12368.606015277626, 18783.891950117584, 0.0, 0.0, 0.0, 0.0, 0.0, 0.0, 0.312, 0.678, -0.674, 192.0, 0.0, 0.0, 0.0, 0.0, 0.0, 0.0, 0.0, 0.0, 0.0, 1.677182686433567E9, 0.0, 2023-02-23 12:04:46.433
190.0, 12369.29891935574, 18782.796714639273, 0.0, 0.0, 0.0, 0.0, 0.0, 0.0, 0.312, 0.678, -0.674, 192.0, 0.0, 0.0, 0.0, 0.0, 0.0, 0.0, 0.0, 0.0, 0.0, 1.677182686442275E9, 0.0, 2023-02-23 12:04:46.442
191.0, 12364.627404764582, 18778.348717492667, 0.0, 0.0, 0.0, 0.0, 0.0, 0.0, 0.312, 0.678, -0.674, 192.0, 0.0, 0.0, 0.0, 0.0, 0.0, 0.0, 0.0, 0.0, 0.0, 1.677182686442296E9, 0.0, 2023-02-23 12:04:46.442
192.0, 12367.957814688423, 18782.014403583336, 0.0, 0.0, 0.0, 0.0, 0.0, 0.0, 0.312, 0.678, -0.674, 192.0, 0.0, 0.0, 0.0, 0.0, 0.0, 0.0, 0.0, 0.0, 0.0, 1.677182686449186E9, 0.0, 2023-02-23 12:04:46.449
193.0, 12362.749858230336, 18774.99595582437, 0.0, 0.0, 0.0, 0.0, 0.0, 0.0, 0.312, 0.678, -0.674, 192.0, 0.0, 0.0, 0.0, 0.0, 0.0, 0.0, 0.0, 0.0, 0.0, 1.677182686449205E9, 0.0, 2023-02-23 12:04:46.449
194.0, 12362.615747763604, 18776.314708747235, 0.0, 0.0, 0.0, 0.0, 0.0, 0.0, 0.312, 0.678, -0.674, 192.0, 0.0, 0.0, 0.0, 0.0, 0.0, 0.0, 0.0, 0.0, 0.0, 1.677182686455771E9, 0.0, 2023-02-23 12:04:46.455
195.0, 12367.466076310406, 18780.695650660473, 0.0, 0.0, 0.0, 0.0, 0.0, 0.0, 0.312, 0.678, -0.674, 192.0, 0.0, 0.0, 0.0, 0.0, 0.0, 0.0, 0.0, 0.0, 0.0, 1.677182686455786E9, 0.0, 2023-02-23 12:04:46.455
196.0, 12362.280471596774, 18773.14076103458, 0.0, 0.0, 0.0, 0.0, 0.0, 0.0, 0.31, 0.684, -0.668, 192.0, 9.0, 176.0, 21.0, 96.0, 235.0, 32.0, 0.0, 0.0, 0.0, 1.677182686463771E9, 0.0, 2023-02-23 12:04:46.463
197.0, 12356.357259316119, 18766.546996420264, 0.0, 0.0, 0.0, 0.0, 0.0, 0.0, 0.31, 0.684, -0.668, 192.0, 0.0, 0.0, 0.0, 0.0, 0.0, 0.0, 0.0, 0.0, 0.0, 1.677182686463783E9, 0.0, 2023-02-23 12:04:46.463
198.0, 12363.710983241914, 18773.408981968045, 0.0, 0.0, 0.0, 0.0, 0.0, 0.0, 0.31, 0.684, -0.668, 192.0, 0.0, 0.0, 0.0, 0.0, 0.0, 0.0, 0.0, 0.0, 0.0, 1.677182686471822E9, 0.0, 2023-02-23 12:04:46.471
199.0, 12373.098715913144, 18783.646080928575, 0.0, 0.0, 0.0, 0.0, 0.0, 0.0, 0.31, 0.684, -0.668, 192.0, 0.0, 0.0, 0.0, 0.0, 0.0, 0.0, 0.0, 0.0, 0.0, 1.677182686471832E9, 0.0, 2023-02-23 12:04:46.471
200.0, 12376.11620141461, 18788.00467109736, 0.0, 0.0, 0.0, 0.0, 0.0, 0.0, 0.31, 0.684, -0.668, 192.0, 0.0, 0.0, 0.0, 0.0, 0.0, 0.0, 0.0, 0.0, 0.0, 1.677182686479035E9, 0.0, 2023-02-23 12:04:46.479
201.0, 12359.039468650755, 18771.531435433797, 0.0, 0.0, 0.0, 0.0, 0.0, 0.0, 0.31, 0.684, -0.668, 192.0, 0.0, 0.0, 0.0, 0.0, 0.0, 0.0, 0.0, 0.0, 0.0, 1.677182686485457E9, 0.0, 2023-02-23 12:04:46.485
202.0, 12360.514683784806, 18771.352621478156, 0.0, 0.0, 0.0, 0.0, 0.0, 0.0, 0.31, 0.684, -0.668, 192.0, 0.0, 0.0, 0.0, 0.0, 0.0, 0.0, 0.0, 0.0, 0.0, 1.677182686485472E9, 0.0, 2023-02-23 12:04:46.485
203.0, 12370.192989133953, 18778.728697148406, 0.0, 0.0, 0.0, 0.0, 0.0, 0.0, 0.31, 0.684, -0.668, 192.0, 0.0, 0.0, 0.0, 0.0, 0.0, 0.0, 0.0, 0.0, 0.0, 1.677182686493483E9, 0.0, 2023-02-23 12:04:46.493
204.0, 12367.533131543772, 18778.505179703854, 0.0, 0.0, 0.0, 0.0, 0.0, 0.0, 0.31, 0.684, -0.668, 192.0, 0.0, 0.0, 0.0, 0.0, 0.0, 0.0, 0.0, 0.0, 0.0, 1.677182686493498E9, 0.0, 2023-02-23 12:04:46.493
205.0, 12362.995727419344, 18773.52074069032, 0.0, 0.0, 0.0, 0.0, 0.0, 0.0, 0.31, 0.684, -0.668, 192.0, 0.0, 0.0, 0.0, 0.0, 0.0, 0.0, 0.0, 0.0, 0.0, 1.677182686501457E9, 0.0, 2023-02-23 12:04:46.501
206.0, 12364.78386697577, 18771.28556624479, 0.0, 0.0, 0.0, 0.0, 0.0, 0.0, 0.322, 0.686, -0.666, 192.0, 10.0, 16.0, 21.0, 112.0, 235.0, 48.0, 0.0, 0.0, 0.0, 1.677182686501472E9, 0.0, 2023-02-23 12:04:46.501
207.0, 12371.154114145531, 18777.18642678099, 0.0, 0.0, 0.0, 0.0, 0.0, 0.0, 0.322, 0.686, -0.666, 192.0, 0.0, 0.0, 0.0, 0.0, 0.0, 0.0, 0.0, 0.0, 0.0, 1.67718268651002E9, 0.0, 2023-02-23 12:04:46.510
208.0, 12371.265872867809, 18779.533359948797, 0.0, 0.0, 0.0, 0.0, 0.0, 0.0, 0.322, 0.686, -0.666, 192.0, 0.0, 0.0, 0.0, 0.0, 0.0, 0.0, 0.0, 0.0, 0.0, 1.677182686510035E9, 0.0, 2023-02-23 12:04:46.510
209.0, 12371.176465889987, 18780.069801815727, 0.0, 0.0, 0.0, 0.0, 0.0, 0.0, 0.322, 0.686, -0.666, 192.0, 0.0, 0.0, 0.0, 0.0, 0.0, 0.0, 0.0, 0.0, 0.0, 1.677182686516236E9, 0.0, 2023-02-23 12:04:46.516
210.0, 12367.488428054861, 18778.639290170588, 0.0, 0.0, 0.0, 0.0, 0.0, 0.0, 0.322, 0.686, -0.666, 192.0, 0.0, 0.0, 0.0, 0.0, 0.0, 0.0, 0.0, 0.0, 0.0, 1.677182686516245E9, 0.0, 2023-02-23 12:04:46.516
211.0, 12367.980166432879, 18778.326365748213, 0.0, 0.0, 0.0, 0.0, 0.0, 0.0, 0.322, 0.686, -0.666, 192.0, 0.0, 0.0, 0.0, 0.0, 0.0, 0.0, 0.0, 0.0, 0.0, 1.677182686524083E9, 0.0, 2023-02-23 12:04:46.524
212.0, 12371.176465889987, 18776.3817639806, 0.0, 0.0, 0.0, 0.0, 0.0, 0.0, 0.322, 0.686, -0.666, 192.0, 0.0, 0.0, 0.0, 0.0, 0.0, 0.0, 0.0, 0.0, 0.0, 1.677182686524102E9, 0.0, 2023-02-23 12:04:46.524
213.0, 12369.790657733758, 18774.34775523517, 0.0, 0.0, 0.0, 0.0, 0.0, 0.0, 0.322, 0.686, -0.666, 192.0, 0.0, 0.0, 0.0, 0.0, 0.0, 0.0, 0.0, 0.0, 0.0, 1.677182686532169E9, 0.0, 2023-02-23 12:04:46.532
214.0, 12376.697346770448, 18778.885159359594, 0.0, 0.0, 0.0, 0.0, 0.0, 0.0, 0.322, 0.686, -0.666, 192.0, 0.0, 0.0, 0.0, 0.0, 0.0, 0.0, 0.0, 0.0, 0.0, 1.677182686532186E9, 0.0, 2023-02-23 12:04:46.532
215.0, 12379.178390404986, 18781.29914776077, 0.0, 0.0, 0.0, 0.0, 0.0, 0.0, 0.322, 0.686, -0.666, 192.0, 0.0, 0.0, 0.0, 0.0, 0.0, 0.0, 0.0, 0.0, 0.0, 1.677182686538308E9, 0.0, 2023-02-23 12:04:46.538
216.0, 12375.155076403033, 18777.409944225543, 0.0, 0.0, 0.0, 0.0, 0.0, 0.0, 0.32, 0.68, -0.66, 192.0, 10.0, 0.0, 21.0, 64.0, 235.0, 96.0, 0.0, 0.0, 0.0, 1.677182686545728E9, 0.0, 2023-02-23 12:04:46.545
217.0, 12368.851884466636, 18777.320537247724, 0.0, 0.0, 0.0, 0.0, 0.0, 0.0, 0.32, 0.68, -0.66, 192.0, 0.0, 0.0, 0.0, 0.0, 0.0, 0.0, 0.0, 0.0, 0.0, 1.677182686545745E9, 0.0, 2023-02-23 12:04:46.545
218.0, 12366.214378620909, 18774.32540349071, 0.0, 0.0, 0.0, 0.0, 0.0, 0.0, 0.32, 0.68, -0.66, 192.0, 0.0, 0.0, 0.0, 0.0, 0.0, 0.0, 0.0, 0.0, 0.0, 1.677182686553757E9, 0.0, 2023-02-23 12:04:46.553
219.0, 12374.708041513926, 18780.360374493644, 0.0, 0.0, 0.0, 0.0, 0.0, 0.0, 0.32, 0.68, -0.66, 192.0, 0.0, 0.0, 0.0, 0.0, 0.0, 0.0, 0.0, 0.0, 0.0, 1.677182686553772E9, 0.0, 2023-02-23 12:04:46.553
220.0, 12372.226997879387, 18778.52753144831, 0.0, 0.0, 0.0, 0.0, 0.0, 0.0, 0.32, 0.68, -0.66, 192.0, 0.0, 0.0, 0.0, 0.0, 0.0, 0.0, 0.0, 0.0, 0.0, 1.677182686560867E9, 0.0, 2023-02-23 12:04:46.560
221.0, 12370.215340878409, 18780.226264026915, 0.0, 0.0, 0.0, 0.0, 0.0, 0.0, 0.32, 0.68, -0.66, 192.0, 0.0, 0.0, 0.0, 0.0, 0.0, 0.0, 0.0, 0.0, 0.0, 1.677182686560899E9, 0.0, 2023-02-23 12:04:46.560
222.0, 12373.009308935323, 18783.75783965085, 0.0, 0.0, 0.0, 0.0, 0.0, 0.0, 0.32, 0.68, -0.66, 192.0, 0.0, 0.0, 0.0, 0.0, 0.0, 0.0, 0.0, 0.0, 0.0, 1.67718268656823E9, 0.0, 2023-02-23 12:04:46.568
223.0, 12380.184218905475, 18784.56250245124, 0.0, 0.0, 0.0, 0.0, 0.0, 0.0, 0.32, 0.68, -0.66, 192.0, 0.0, 0.0, 0.0, 0.0, 0.0, 0.0, 0.0, 0.0, 0.0, 1.677182686568239E9, 0.0, 2023-02-23 12:04:46.568
224.0, 12370.215340878409, 18769.586833666188, 0.0, 0.0, 0.0, 0.0, 0.0, 0.0, 0.32, 0.68, -0.66, 192.0, 0.0, 0.0, 0.0, 0.0, 0.0, 0.0, 0.0, 0.0, 0.0, 1.677182686576422E9, 0.0, 2023-02-23 12:04:46.576
225.0, 12371.77996299028, 18772.649022656566, 0.0, 0.0, 0.0, 0.0, 0.0, 0.0, 0.32, 0.68, -0.66, 192.0, 0.0, 0.0, 0.0, 0.0, 0.0, 0.0, 0.0, 0.0, 0.0, 1.677182686576438E9, 0.0, 2023-02-23 12:04:46.576
226.0, 12382.061765439721, 18784.115467562136, 0.0, 0.0, 0.0, 0.0, 0.0, 0.0, 0.328, 0.682, -0.656, 192.0, 10.0, 64.0, 21.0, 80.0, 235.0, 128.0, 0.0, 0.0, 0.0, 1.677182686584361E9, 0.0, 2023-02-23 12:04:46.584
227.0, 12387.202666664441, 18785.277758273813, 0.0, 0.0, 0.0, 0.0, 0.0, 0.0, 0.328, 0.682, -0.656, 192.0, 0.0, 0.0, 0.0, 0.0, 0.0, 0.0, 0.0, 0.0, 0.0, 1.677182686584379E9, 0.0, 2023-02-23 12:04:46.584
228.0, 12390.60013182165, 18793.302034533266, 0.0, 0.0, 0.0, 0.0, 0.0, 0.0, 0.328, 0.682, -0.656, 192.0, 0.0, 0.0, 0.0, 0.0, 0.0, 0.0, 0.0, 0.0, 0.0, 1.677182686590934E9, 0.0, 2023-02-23 12:04:46.590
229.0, 12370.282396111776, 18778.86280761514, 0.0, 0.0, 0.0, 0.0, 0.0, 0.0, 0.328, 0.682, -0.656, 192.0, 0.0, 0.0, 0.0, 0.0, 0.0, 0.0, 0.0, 0.0, 0.0, 1.67718268659095E9, 0.0, 2023-02-23 12:04:46.590
230.0, 12351.64104123605, 18764.356525463645, 0.0, 0.0, 0.0, 0.0, 0.0, 0.0, 0.328, 0.682, -0.656, 192.0, 0.0, 0.0, 0.0, 0.0, 0.0, 0.0, 0.0, 0.0, 0.0, 1.677182686598041E9, 0.0, 2023-02-23 12:04:46.598
231.0, 12361.721677985392, 18778.460476214943, 0.0, 0.0, 0.0, 0.0, 0.0, 0.0, 0.328, 0.682, -0.656, 192.0, 0.0, 0.0, 0.0, 0.0, 0.0, 0.0, 0.0, 0.0, 0.0, 1.677182686606035E9, 0.0, 2023-02-23 12:04:46.606
232.0, 12360.246462851343, 18782.416734983533, 0.0, 0.0, 0.0, 0.0, 0.0, 0.0, 0.328, 0.682, -0.656, 192.0, 0.0, 0.0, 0.0, 0.0, 0.0, 0.0, 0.0, 0.0, 0.0, 1.677182686606047E9, 0.0, 2023-02-23 12:04:46.606
233.0, 12357.787770961259, 18778.594586681676, 0.0, 0.0, 0.0, 0.0, 0.0, 0.0, 0.328, 0.682, -0.656, 192.0, 0.0, 0.0, 0.0, 0.0, 0.0, 0.0, 0.0, 0.0, 0.0, 1.677182686613963E9, 0.0, 2023-02-23 12:04:46.613
234.0, 12350.769323202292, 18779.62276692662, 0.0, 0.0, 0.0, 0.0, 0.0, 0.0, 0.328, 0.682, -0.656, 192.0, 0.0, 0.0, 0.0, 0.0, 0.0, 0.0, 0.0, 0.0, 0.0, 1.677182686613979E9, 0.0, 2023-02-23 12:04:46.613
235.0, 12350.366991802097, 18778.90751110405, 0.0, 0.0, 0.0, 0.0, 0.0, 0.0, 0.332, 0.682, -0.65, 192.0, 10.0, 96.0, 21.0, 80.0, 235.0, 176.0, 0.0, 0.0, 0.0, 1.677182686620703E9, 0.0, 2023-02-23 12:04:46.620
236.0, 12348.86942492359, 18779.84628437117, 0.0, 0.0, 0.0, 0.0, 0.0, 0.0, 0.332, 0.682, -0.65, 192.0, 0.0, 0.0, 0.0, 0.0, 0.0, 0.0, 0.0, 0.0, 0.0, 1.677182686620724E9, 0.0, 2023-02-23 12:04:46.620
237.0, 12349.316459812697, 18787.95996760845, 0.0, 0.0, 0.0, 0.0, 0.0, 0.0, 0.332, 0.682, -0.65, 192.0, 0.0, 0.0, 0.0, 0.0, 0.0, 0.0, 0.0, 0.0, 0.0, 1.677182686628668E9, 0.0, 2023-02-23 12:04:46.628
238.0, 12349.785846446259, 18790.798639154273, 0.0, 0.0, 0.0, 0.0, 0.0, 0.0, 0.332, 0.682, -0.65, 192.0, 0.0, 0.0, 0.0, 0.0, 0.0, 0.0, 0.0, 0.0, 0.0, 1.677182686628724E9, 0.0, 2023-02-23 12:04:46.628
239.0, 12350.63521273556, 18793.61495895564, 0.0, 0.0, 0.0, 0.0, 0.0, 0.0, 0.332, 0.682, -0.65, 192.0, 0.0, 0.0, 0.0, 0.0, 0.0, 0.0, 0.0, 0.0, 0.0, 1.677182686636682E9, 0.0, 2023-02-23 12:04:46.636
240.0, 12354.882044182068, 18789.77045890933, 0.0, 0.0, 0.0, 0.0, 0.0, 0.0, 0.332, 0.682, -0.65, 192.0, 0.0, 0.0, 0.0, 0.0, 0.0, 0.0, 0.0, 0.0, 0.0, 1.677182686636704E9, 0.0, 2023-02-23 12:04:46.636
241.0, 12360.715849484903, 18792.743240921885, 0.0, 0.0, 0.0, 0.0, 0.0, 0.0, 0.332, 0.682, -0.65, 192.0, 0.0, 0.0, 0.0, 0.0, 0.0, 0.0, 0.0, 0.0, 0.0, 1.677182686643806E9, 0.0, 2023-02-23 12:04:46.643
242.0, 12362.503989041328, 18805.99782538388, 0.0, 0.0, 0.0, 0.0, 0.0, 0.0, 0.332, 0.682, -0.65, 192.0, 0.0, 0.0, 0.0, 0.0, 0.0, 0.0, 0.0, 0.0, 0.0, 1.67718268664382E9, 0.0, 2023-02-23 12:04:46.643
243.0, 12357.631308750071, 18802.24273231539, 0.0, 0.0, 0.0, 0.0, 0.0, 0.0, 0.332, 0.682, -0.65, 192.0, 0.0, 0.0, 0.0, 0.0, 0.0, 0.0, 0.0, 0.0, 0.0, 1.677182686651165E9, 0.0, 2023-02-23 12:04:46.651
244.0, 12356.223148849387, 18802.130973593114, 0.0, 0.0, 0.0, 0.0, 0.0, 0.0, 0.332, 0.682, -0.65, 192.0, 0.0, 0.0, 0.0, 0.0, 0.0, 0.0, 0.0, 0.0, 0.0, 1.677182686651177E9, 0.0, 2023-02-23 12:04:46.651
245.0, 12360.11235238461, 18799.62757821412, 0.0, 0.0, 0.0, 0.0, 0.0, 0.0, 0.34, 0.676, -0.64, 192.0, 10.0, 160.0, 21.0, 32.0, 236.0, 0.0, 0.0, 0.0, 0.0, 1.677182686658251E9, 0.0, 2023-02-23 12:04:46.658
246.0, 12359.464151795406, 18800.588703225698, 0.0, 0.0, 0.0, 0.0, 0.0, 0.0, 0.34, 0.676, -0.64, 192.0, 0.0, 0.0, 0.0, 0.0, 0.0, 0.0, 0.0, 0.0, 0.0, 1.677182686658268E9, 0.0, 2023-02-23 12:04:46.658
247.0, 12370.081230411677, 18810.267008574847, 0.0, 0.0, 0.0, 0.0, 0.0, 0.0, 0.34, 0.676, -0.64, 192.0, 0.0, 0.0, 0.0, 0.0, 0.0, 0.0, 0.0, 0.0, 0.0, 1.677182686667718E9, 0.0, 2023-02-23 12:04:46.667
248.0, 12376.920864215, 18816.994883655894, 0.0, 0.0, 0.0, 0.0, 0.0, 0.0, 0.34, 0.676, -0.64, 192.0, 0.0, 0.0, 0.0, 0.0, 0.0, 0.0, 0.0, 0.0, 0.0, 1.677182686673891E9, 0.0, 2023-02-23 12:04:46.673
249.0, 12369.857712967125, 18814.938523166005, 0.0, 0.0, 0.0, 0.0, 0.0, 0.0, 0.34, 0.676, -0.64, 192.0, 0.0, 0.0, 0.0, 0.0, 0.0, 0.0, 0.0, 0.0, 0.0, 1.677182686673915E9, 0.0, 2023-02-23 12:04:46.673
250.0, 12352.915090670002, 18798.91232239155, 0.0, 0.0, 0.0, 0.0, 0.0, 0.0, 0.34, 0.676, -0.64, 192.0, 0.0, 0.0, 0.0, 0.0, 0.0, 0.0, 0.0, 0.0, 0.0, 1.67718268668085E9, 0.0, 2023-02-23 12:04:46.680
251.0, 12353.049201136733, 18799.62757821412, 0.0, 0.0, 0.0, 0.0, 0.0, 0.0, 0.34, 0.676, -0.64, 192.0, 0.0, 0.0, 0.0, 0.0, 0.0, 0.0, 0.0, 0.0, 0.0, 1.677182686680863E9, 0.0, 2023-02-23 12:04:46.680
252.0, 12365.163846631509, 18809.81997368574, 0.0, 0.0, 0.0, 0.0, 0.0, 0.0, 0.34, 0.676, -0.64, 192.0, 0.0, 0.0, 0.0, 0.0, 0.0, 0.0, 0.0, 0.0, 0.0, 1.6771826866889E9, 0.0, 2023-02-23 12:04:46.688
253.0, 12371.042355423255, 18815.363206310656, 0.0, 0.0, 0.0, 0.0, 0.0, 0.0, 0.34, 0.676, -0.64, 192.0, 0.0, 0.0, 0.0, 0.0, 0.0, 0.0, 0.0, 0.0, 0.0, 1.677182686688914E9, 0.0, 2023-02-23 12:04:46.688
254.0, 12358.905358184023, 18802.421546271034, 0.0, 0.0, 0.0, 0.0, 0.0, 0.0, 0.34, 0.676, -0.64, 192.0, 0.0, 0.0, 0.0, 0.0, 0.0, 0.0, 0.0, 0.0, 0.0, 1.677182686696842E9, 0.0, 2023-02-23 12:04:46.696
255.0, 12353.138608114554, 18793.078517088714, 0.0, 0.0, 0.0, 0.0, 0.0, 0.0, 0.35000000000000003, 0.68, -0.646, 192.0, 10.0, 240.0, 21.0, 64.0, 235.0, 208.0, 0.0, 0.0, 0.0, 1.677182686696876E9, 0.0, 2023-02-23 12:04:46.696
0.0, 12359.508855284317, 18801.639235215098, 0.0, 0.0, 0.0, 0.0, 0.0, 0.0, 0.35000000000000003, 0.68, -0.646, 192.0, 0.0, 0.0, 0.0, 0.0, 0.0, 0.0, 0.0, 0.0, 0.0, 1.677182686703575E9, 0.0, 2023-02-23 12:04:46.703
1.0, 12366.460247809917, 18805.506087005866, 0.0, 0.0, 0.0, 0.0, 0.0, 0.0, 0.35000000000000003, 0.68, -0.646, 192.0, 0.0, 0.0, 0.0, 0.0, 0.0, 0.0, 0.0, 0.0, 0.0, 1.677182686703593E9, 0.0, 2023-02-23 12:04:46.703
2.0, 12369.29891935574, 18805.77430793933, 0.0, 0.0, 0.0, 0.0, 0.0, 0.0, 0.35000000000000003, 0.68, -0.646, 192.0, 0.0, 0.0, 0.0, 0.0, 0.0, 0.0, 0.0, 0.0, 0.0, 1.677182686711584E9, 0.0, 2023-02-23 12:04:46.711
3.0, 12363.912148942012, 18799.739336936396, 0.0, 0.0, 0.0, 0.0, 0.0, 0.0, 0.35000000000000003, 0.68, -0.646, 192.0, 0.0, 0.0, 0.0, 0.0, 0.0, 0.0, 0.0, 0.0, 0.0, 1.677182686711607E9, 0.0, 2023-02-23 12:04:46.711
4.0, 12364.716811742403, 18801.2369038149, 0.0, 0.0, 0.0, 0.0, 0.0, 0.0, 0.35000000000000003, 0.68, -0.646, 192.0, 0.0, 0.0, 0.0, 0.0, 0.0, 0.0, 0.0, 0.0, 0.0, 1.677182686719591E9, 0.0, 2023-02-23 12:04:46.719
5.0, 12370.707079256426, 18807.473040517933, 0.0, 0.0, 0.0, 0.0, 0.0, 0.0, 0.35000000000000003, 0.68, -0.646, 192.0, 0.0, 0.0, 0.0, 0.0, 0.0, 0.0, 0.0, 0.0, 0.0, 1.677182686719608E9, 0.0, 2023-02-23 12:04:46.719
6.0, 12368.293090855252, 18806.91424690655, 0.0, 0.0, 0.0, 0.0, 0.0, 0.0, 0.35000000000000003, 0.68, -0.646, 192.0, 0.0, 0.0, 0.0, 0.0, 0.0, 0.0, 0.0, 0.0, 0.0, 1.67718268672667E9, 0.0, 2023-02-23 12:04:46.726
7.0, 12362.503989041328, 18801.795697426285, 0.0, 0.0, 0.0, 0.0, 0.0, 0.0, 0.35000000000000003, 0.68, -0.646, 192.0, 0.0, 0.0, 0.0, 0.0, 0.0, 0.0, 0.0, 0.0, 0.0, 1.6771826867332E9, 0.0, 2023-02-23 12:04:46.733
8.0, 12366.795523976747, 18803.382671282612, 0.0, 0.0, 0.0, 0.0, 0.0, 0.0, 0.35000000000000003, 0.68, -0.646, 192.0, 0.0, 0.0, 0.0, 0.0, 0.0, 0.0, 0.0, 0.0, 0.0, 1.677182686733213E9, 0.0, 2023-02-23 12:04:46.733
9.0, 12369.164808889009, 18807.718909706942, 0.0, 0.0, 0.0, 0.0, 0.0, 0.0, 0.358, 0.672, -0.652, 192.0, 11.0, 48.0, 21.0, 0.0, 235.0, 160.0, 0.0, 0.0, 0.0, 1.677182686741144E9, 0.0, 2023-02-23 12:04:46.741
10.0, 12371.265872867809, 18806.668377717542, 0.0, 0.0, 0.0, 0.0, 0.0, 0.0, 0.358, 0.672, -0.652, 192.0, 0.0, 0.0, 0.0, 0.0, 0.0, 0.0, 0.0, 0.0, 0.0, 1.677182686741156E9, 0.0, 2023-02-23 12:04:46.741
11.0, 12374.730393258382, 18808.836496929707, 0.0, 0.0, 0.0, 0.0, 0.0, 0.0, 0.358, 0.672, -0.652, 192.0, 0.0, 0.0, 0.0, 0.0, 0.0, 0.0, 0.0, 0.0, 0.0, 1.677182686749095E9, 0.0, 2023-02-23 12:04:46.749
12.0, 12378.150210160044, 18816.614904000155, 0.0, 0.0, 0.0, 0.0, 0.0, 0.0, 0.358, 0.672, -0.652, 192.0, 0.0, 0.0, 0.0, 0.0, 0.0, 0.0, 0.0, 0.0, 0.0, 1.67718268674911E9, 0.0, 2023-02-23 12:04:46.749
13.0, 12376.652643281537, 18813.932694665516, 0.0, 0.0, 0.0, 0.0, 0.0, 0.0, 0.358, 0.672, -0.652, 192.0, 0.0, 0.0, 0.0, 0.0, 0.0, 0.0, 0.0, 0.0, 0.0, 1.677182686755717E9, 0.0, 2023-02-23 12:04:46.755
14.0, 12373.54575080225, 18808.836496929707, 0.0, 0.0, 0.0, 0.0, 0.0, 0.0, 0.358, 0.672, -0.652, 192.0, 0.0, 0.0, 0.0, 0.0, 0.0, 0.0, 0.0, 0.0, 0.0, 1.677182686755744E9, 0.0, 2023-02-23 12:04:46.755
15.0, 12373.366936846607, 18806.78013643982, 0.0, 0.0, 0.0, 0.0, 0.0, 0.0, 0.358, 0.672, -0.652, 192.0, 0.0, 0.0, 0.0, 0.0, 0.0, 0.0, 0.0, 0.0, 0.0, 1.677182686763825E9, 0.0, 2023-02-23 12:04:46.763
16.0, 12373.9704339469, 18808.76944169634, 0.0, 0.0, 0.0, 0.0, 0.0, 0.0, 0.358, 0.672, -0.652, 192.0, 0.0, 0.0, 0.0, 0.0, 0.0, 0.0, 0.0, 0.0, 0.0, 1.677182686763863E9, 0.0, 2023-02-23 12:04:46.763
17.0, 12380.228922394386, 18817.28545633381, 0.0, 0.0, 0.0, 0.0, 0.0, 0.0, 0.358, 0.672, -0.652, 192.0, 0.0, 0.0, 0.0, 0.0, 0.0, 0.0, 0.0, 0.0, 0.0, 1.677182686771847E9, 0.0, 2023-02-23 12:04:46.771
18.0, 12382.933483473478, 18820.481755790923, 0.0, 0.0, 0.0, 0.0, 0.0, 0.0, 0.358, 0.672, -0.652, 192.0, 0.0, 0.0, 0.0, 0.0, 0.0, 0.0, 0.0, 0.0, 0.0, 1.677182686771861E9, 0.0, 2023-02-23 12:04:46.771
19.0, 12377.1220299151, 18811.876334175628, 0.0, 0.0, 0.0, 0.0, 0.0, 0.0, 0.354, 0.672, -0.648, 192.0, 11.0, 16.0, 21.0, 0.0, 235.0, 192.0, 0.0, 0.0, 0.0, 1.677182686778871E9, 0.0, 2023-02-23 12:04:46.778
20.0, 12376.965567703912, 18808.72473820743, 0.0, 0.0, 0.0, 0.0, 0.0, 0.0, 0.354, 0.672, -0.648, 192.0, 0.0, 0.0, 0.0, 0.0, 0.0, 0.0, 0.0, 0.0, 0.0, 1.677182686778886E9, 0.0, 2023-02-23 12:04:46.778
21.0, 12377.233788637375, 18812.435127787012, 0.0, 0.0, 0.0, 0.0, 0.0, 0.0, 0.354, 0.672, -0.648, 192.0, 0.0, 0.0, 0.0, 0.0, 0.0, 0.0, 0.0, 0.0, 0.0, 1.677182686785385E9, 0.0, 2023-02-23 12:04:46.785
22.0, 12379.40190784954, 18814.938523166005, 0.0, 0.0, 0.0, 0.0, 0.0, 0.0, 0.354, 0.672, -0.648, 192.0, 0.0, 0.0, 0.0, 0.0, 0.0, 0.0, 0.0, 0.0, 0.0, 1.677182686793462E9, 0.0, 2023-02-23 12:04:46.793
23.0, 12388.811992265224, 18821.129956380126, 0.0, 0.0, 0.0, 0.0, 0.0, 0.0, 0.354, 0.672, -0.648, 192.0, 0.0, 0.0, 0.0, 0.0, 0.0, 0.0, 0.0, 0.0, 0.0, 1.677182686793479E9, 0.0, 2023-02-23 12:04:46.793
24.0, 12403.675902328003, 18835.30096236479, 0.0, 0.0, 0.0, 0.0, 0.0, 0.0, 0.354, 0.672, -0.648, 192.0, 0.0, 0.0, 0.0, 0.0, 0.0, 0.0, 0.0, 0.0, 0.0, 1.677182686801503E9, 0.0, 2023-02-23 12:04:46.801
25.0, 12389.035509709778, 18826.852002960684, 0.0, 0.0, 0.0, 0.0, 0.0, 0.0, 0.354, 0.672, -0.648, 192.0, 0.0, 0.0, 0.0, 0.0, 0.0, 0.0, 0.0, 0.0, 0.0, 1.677182686801521E9, 0.0, 2023-02-23 12:04:46.801
26.0, 12375.155076403033, 18810.445822530488, 0.0, 0.0, 0.0, 0.0, 0.0, 0.0, 0.354, 0.672, -0.648, 192.0, 0.0, 0.0, 0.0, 0.0, 0.0, 0.0, 0.0, 0.0, 0.0, 1.677182686808647E9, 0.0, 2023-02-23 12:04:46.808
27.0, 12378.373727604596, 18812.09985162018, 0.0, 0.0, 0.0, 0.0, 0.0, 0.0, 0.354, 0.672, -0.648, 192.0, 0.0, 0.0, 0.0, 0.0, 0.0, 0.0, 0.0, 0.0, 0.0, 1.677182686808666E9, 0.0, 2023-02-23 12:04:46.808
28.0, 12377.412602593018, 18817.419566800545, 0.0, 0.0, 0.0, 0.0, 0.0, 0.0, 0.354, 0.672, -0.648, 192.0, 0.0, 0.0, 0.0, 0.0, 0.0, 0.0, 0.0, 0.0, 0.0, 1.677182686816053E9, 0.0, 2023-02-23 12:04:46.816
29.0, 12383.31346312922, 18820.749976724386, 0.0, 0.0, 0.0, 0.0, 0.0, 0.0, 0.354, 0.664, -0.662, 192.0, 11.0, 16.0, 20.0, 192.0, 235.0, 80.0, 0.0, 0.0, 0.0, 1.677182686816066E9, 0.0, 2023-02-23 12:04:46.816
30.0, 12386.867390497613, 18824.549773281786, 0.0, 0.0, 0.0, 0.0, 0.0, 0.0, 0.354, 0.664, -0.662, 192.0, 0.0, 0.0, 0.0, 0.0, 0.0, 0.0, 0.0, 0.0, 0.0, 1.677182686824106E9, 0.0, 2023-02-23 12:04:46.824
31.0, 12383.73814627387, 18820.414700557554, 0.0, 0.0, 0.0, 0.0, 0.0, 0.0, 0.354, 0.664, -0.662, 192.0, 0.0, 0.0, 0.0, 0.0, 0.0, 0.0, 0.0, 0.0, 0.0, 1.677182686824122E9, 0.0, 2023-02-23 12:04:46.824
32.0, 12382.866428240113, 18818.0901191342, 0.0, 0.0, 0.0, 0.0, 0.0, 0.0, 0.354, 0.664, -0.662, 192.0, 0.0, 0.0, 0.0, 0.0, 0.0, 0.0, 0.0, 0.0, 0.0, 1.67718268683204E9, 0.0, 2023-02-23 12:04:46.832
33.0, 12386.800335264246, 18819.274761590335, 0.0, 0.0, 0.0, 0.0, 0.0, 0.0, 0.354, 0.664, -0.662, 192.0, 0.0, 0.0, 0.0, 0.0, 0.0, 0.0, 0.0, 0.0, 0.0, 1.677182686832068E9, 0.0, 2023-02-23 12:04:46.832
34.0, 12391.382442877584, 18824.840345959707, 0.0, 0.0, 0.0, 0.0, 0.0, 0.0, 0.354, 0.664, -0.662, 192.0, 0.0, 0.0, 0.0, 0.0, 0.0, 0.0, 0.0, 0.0, 0.0, 1.677182686838656E9, 0.0, 2023-02-23 12:04:46.838
35.0, 12390.153096932543, 18822.15813662507, 0.0, 0.0, 0.0, 0.0, 0.0, 0.0, 0.354, 0.664, -0.662, 192.0, 0.0, 0.0, 0.0, 0.0, 0.0, 0.0, 0.0, 0.0, 0.0, 1.677182686838676E9, 0.0, 2023-02-23 12:04:46.838
36.0, 12383.939311973967, 18817.173697611535, 0.0, 0.0, 0.0, 0.0, 0.0, 0.0, 0.354, 0.664, -0.662, 192.0, 0.0, 0.0, 0.0, 0.0, 0.0, 0.0, 0.0, 0.0, 0.0, 1.67718268684574E9, 0.0, 2023-02-23 12:04:46.845
37.0, 12382.709966028926, 18817.91130517856, 0.0, 0.0, 0.0, 0.0, 0.0, 0.0, 0.354, 0.664, -0.662, 192.0, 0.0, 0.0, 0.0, 0.0, 0.0, 0.0, 0.0, 0.0, 0.0, 1.677182686853825E9, 0.0, 2023-02-23 12:04:46.853
38.0, 12388.767288776315, 18821.644046502595, 0.0, 0.0, 0.0, 0.0, 0.0, 0.0, 0.354, 0.664, -0.662, 192.0, 0.0, 0.0, 0.0, 0.0, 0.0, 0.0, 0.0, 0.0, 0.0, 1.677182686853855E9, 0.0, 2023-02-23 12:04:46.853
39.0, 12396.523344102305, 18831.25529661838, 0.0, 0.0, 0.0, 0.0, 0.0, 0.0, 0.352, 0.652, -0.678, 192.0, 11.0, 0.0, 20.0, 96.0, 234.0, 208.0, 0.0, 0.0, 0.0, 1.677182686861667E9, 0.0, 2023-02-23 12:04:46.861
40.0, 12396.389233635573, 18836.10562516518, 0.0, 0.0, 0.0, 0.0, 0.0, 0.0, 0.352, 0.652, -0.678, 192.0, 0.0, 0.0, 0.0, 0.0, 0.0, 0.0, 0.0, 0.0, 0.0, 1.677182686861679E9, 0.0, 2023-02-23 12:04:46.861
41.0, 12394.891666757068, 18829.355398339678, 0.0, 0.0, 0.0, 0.0, 0.0, 0.0, 0.352, 0.652, -0.678, 192.0, 0.0, 0.0, 0.0, 0.0, 0.0, 0.0, 0.0, 0.0, 0.0, 1.677182686868427E9, 0.0, 2023-02-23 12:04:46.868
42.0, 12398.490297614373, 18832.35053209669, 0.0, 0.0, 0.0, 0.0, 0.0, 0.0, 0.352, 0.652, -0.678, 192.0, 0.0, 0.0, 0.0, 0.0, 0.0, 0.0, 0.0, 0.0, 0.0, 1.677182686868438E9, 0.0, 2023-02-23 12:04:46.868
43.0, 12409.465004141928, 18841.82767174574, 0.0, 0.0, 0.0, 0.0, 0.0, 0.0, 0.352, 0.652, -0.678, 192.0, 0.0, 0.0, 0.0, 0.0, 0.0, 0.0, 0.0, 0.0, 0.0, 1.677182686876365E9, 0.0, 2023-02-23 12:04:46.876
44.0, 12420.327951947207, 18851.59538407271, 0.0, 0.0, 0.0, 0.0, 0.0, 0.0, 0.352, 0.652, -0.678, 192.0, 0.0, 0.0, 0.0, 0.0, 0.0, 0.0, 0.0, 0.0, 0.0, 1.677182686876373E9, 0.0, 2023-02-23 12:04:46.876
45.0, 12405.93342851799, 18838.83253798873, 0.0, 0.0, 0.0, 0.0, 0.0, 0.0, 0.352, 0.652, -0.678, 192.0, 0.0, 0.0, 0.0, 0.0, 0.0, 0.0, 0.0, 0.0, 0.0, 1.677182686884346E9, 0.0, 2023-02-23 12:04:46.884
46.0, 12398.155021447543, 18830.58474428472, 0.0, 0.0, 0.0, 0.0, 0.0, 0.0, 0.352, 0.652, -0.678, 192.0, 0.0, 0.0, 0.0, 0.0, 0.0, 0.0, 0.0, 0.0, 0.0, 1.677182686884366E9, 0.0, 2023-02-23 12:04:46.884
47.0, 12406.514573873828, 18838.720779266452, 0.0, 0.0, 0.0, 0.0, 0.0, 0.0, 0.352, 0.652, -0.678, 192.0, 0.0, 0.0, 0.0, 0.0, 0.0, 0.0, 0.0, 0.0, 0.0, 1.677182686891592E9, 0.0, 2023-02-23 12:04:46.891
48.0, 12407.07336748521, 18840.195994400503, 0.0, 0.0, 0.0, 0.0, 0.0, 0.0, 0.352, 0.652, -0.678, 192.0, 0.0, 0.0, 0.0, 0.0, 0.0, 0.0, 0.0, 0.0, 0.0, 1.677182686891608E9, 0.0, 2023-02-23 12:04:46.891
49.0, 12403.40768139454, 18838.4972618219, 0.0, 0.0, 0.0, 0.0, 0.0, 0.0, 0.34600000000000003, 0.646, -0.684, 192.0, 10.0, 208.0, 20.0, 48.0, 234.0, 160.0, 0.0, 0.0, 0.0, 1.677182686898972E9, 0.0, 2023-02-23 12:04:46.898
50.0, 12414.628257111104, 18849.15904392708, 0.0, 0.0, 0.0, 0.0, 0.0, 0.0, 0.34600000000000003, 0.646, -0.684, 192.0, 0.0, 0.0, 0.0, 0.0, 0.0, 0.0, 0.0, 0.0, 0.0, 1.67718268689899E9, 0.0, 2023-02-23 12:04:46.898
51.0, 12420.685579858493, 18853.987020729426, 0.0, 0.0, 0.0, 0.0, 0.0, 0.0, 0.34600000000000003, 0.646, -0.684, 192.0, 0.0, 0.0, 0.0, 0.0, 0.0, 0.0, 0.0, 0.0, 0.0, 1.677182686906026E9, 0.0, 2023-02-23 12:04:46.906
52.0, 12415.07529200021, 18849.382561371633, 0.0, 0.0, 0.0, 0.0, 0.0, 0.0, 0.34600000000000003, 0.646, -0.684, 192.0, 0.0, 0.0, 0.0, 0.0, 0.0, 0.0, 0.0, 0.0, 0.0, 1.677182686906039E9, 0.0, 2023-02-23 12:04:46.906
53.0, 12411.096681487166, 18847.393256115112, 0.0, 0.0, 0.0, 0.0, 0.0, 0.0, 0.34600000000000003, 0.646, -0.684, 192.0, 0.0, 0.0, 0.0, 0.0, 0.0, 0.0, 0.0, 0.0, 0.0, 1.677182686913947E9, 0.0, 2023-02-23 12:04:46.913
54.0, 12413.488318143884, 18848.086160193227, 0.0, 0.0, 0.0, 0.0, 0.0, 0.0, 0.34600000000000003, 0.646, -0.684, 192.0, 0.0, 0.0, 0.0, 0.0, 0.0, 0.0, 0.0, 0.0, 0.0, 1.677182686921273E9, 0.0, 2023-02-23 12:04:46.921
55.0, 12413.376559421607, 18839.704256022484, 0.0, 0.0, 0.0, 0.0, 0.0, 0.0, 0.34600000000000003, 0.646, -0.684, 192.0, 0.0, 0.0, 0.0, 0.0, 0.0, 0.0, 0.0, 0.0, 0.0, 1.677182686921282E9, 0.0, 2023-02-23 12:04:46.921
56.0, 12406.02283549581, 18835.502128064887, 0.0, 0.0, 0.0, 0.0, 0.0, 0.0, 0.34600000000000003, 0.646, -0.684, 192.0, 0.0, 0.0, 0.0, 0.0, 0.0, 0.0, 0.0, 0.0, 0.0, 1.677182686928699E9, 0.0, 2023-02-23 12:04:46.928
57.0, 12402.111280216131, 18833.71398850846, 0.0, 0.0, 0.0, 0.0, 0.0, 0.0, 0.34600000000000003, 0.646, -0.684, 192.0, 0.0, 0.0, 0.0, 0.0, 0.0, 0.0, 0.0, 0.0, 0.0, 1.677182686928728E9, 0.0, 2023-02-23 12:04:46.928
58.0, 12404.726434317403, 18837.111453665668, 0.0, 0.0, 0.0, 0.0, 0.0, 0.0, 0.332, 0.638, -0.6960000000000001, 192.0, 10.0, 96.0, 19.0, 240.0, 234.0, 64.0, 0.0, 0.0, 0.0, 1.677182686936693E9, 0.0, 2023-02-23 12:04:46.936
59.0, 12403.899419772557, 18838.07257867725, 0.0, 0.0, 0.0, 0.0, 0.0, 0.0, 0.332, 0.638, -0.6960000000000001, 192.0, 0.0, 0.0, 0.0, 0.0, 0.0, 0.0, 0.0, 0.0, 0.0, 1.677182686936708E9, 0.0, 2023-02-23 12:04:46.936
60.0, 12405.128765717598, 18837.82670948824, 0.0, 0.0, 0.0, 0.0, 0.0, 0.0, 0.332, 0.638, -0.6960000000000001, 192.0, 0.0, 0.0, 0.0, 0.0, 0.0, 0.0, 0.0, 0.0, 0.0, 1.677182686943704E9, 0.0, 2023-02-23 12:04:46.943
61.0, 12406.93925701848, 18837.603192043687, 0.0, 0.0, 0.0, 0.0, 0.0, 0.0, 0.332, 0.638, -0.6960000000000001, 192.0, 0.0, 0.0, 0.0, 0.0, 0.0, 0.0, 0.0, 0.0, 0.0, 1.677182686943722E9, 0.0, 2023-02-23 12:04:46.943
62.0, 12412.817765810225, 18842.72174152395, 0.0, 0.0, 0.0, 0.0, 0.0, 0.0, 0.332, 0.638, -0.6960000000000001, 192.0, 0.0, 0.0, 0.0, 0.0, 0.0, 0.0, 0.0, 0.0, 0.0, 1.677182686951225E9, 0.0, 2023-02-23 12:04:46.951
63.0, 12413.242448954876, 18846.275668892344, 0.0, 0.0, 0.0, 0.0, 0.0, 0.0, 0.332, 0.638, -0.6960000000000001, 192.0, 0.0, 0.0, 0.0, 0.0, 0.0, 0.0, 0.0, 0.0, 0.0, 1.677182686951238E9, 0.0, 2023-02-23 12:04:46.951
64.0, 12410.73905357588, 18847.12503518165, 0.0, 0.0, 0.0, 0.0, 0.0, 0.0, 0.332, 0.638, -0.6960000000000001, 192.0, 0.0, 0.0, 0.0, 0.0, 0.0, 0.0, 0.0, 0.0, 0.0, 1.677182686959276E9, 0.0, 2023-02-23 12:04:46.959
65.0, 12405.799318051259, 18841.023008945347, 0.0, 0.0, 0.0, 0.0, 0.0, 0.0, 0.332, 0.638, -0.6960000000000001, 192.0, 0.0, 0.0, 0.0, 0.0, 0.0, 0.0, 0.0, 0.0, 0.0, 1.677182686959288E9, 0.0, 2023-02-23 12:04:46.959
66.0, 12405.084062228689, 18837.15615715458, 0.0, 0.0, 0.0, 0.0, 0.0, 0.0, 0.332, 0.638, -0.6960000000000001, 192.0, 0.0, 0.0, 0.0, 0.0, 0.0, 0.0, 0.0, 0.0, 0.0, 1.677182686967254E9, 0.0, 2023-02-23 12:04:46.967
67.0, 12408.280361685796, 18837.558488554776, 0.0, 0.0, 0.0, 0.0, 0.0, 0.0, 0.332, 0.638, -0.6960000000000001, 192.0, 0.0, 0.0, 0.0, 0.0, 0.0, 0.0, 0.0, 0.0, 0.0, 1.67718268696727E9, 0.0, 2023-02-23 12:04:46.967
68.0, 12408.570934363715, 18839.88306997813, 0.0, 0.0, 0.0, 0.0, 0.0, 0.0, 0.318, 0.634, -0.716, 192.0, 9.0, 240.0, 19.0, 208.0, 233.0, 160.0, 0.0, 0.0, 0.0, 1.677182686973348E9, 0.0, 2023-02-23 12:04:46.973
69.0, 12412.191916965476, 18845.091026436214, 0.0, 0.0, 0.0, 0.0, 0.0, 0.0, 0.318, 0.634, -0.716, 192.0, 0.0, 0.0, 0.0, 0.0, 0.0, 0.0, 0.0, 0.0, 0.0, 1.677182686980849E9, 0.0, 2023-02-23 12:04:46.980
70.0, 12409.040320997277, 18840.128939167134, 0.0, 0.0, 0.0, 0.0, 0.0, 0.0, 0.318, 0.634, -0.716, 192.0, 0.0, 0.0, 0.0, 0.0, 0.0, 0.0, 0.0, 0.0, 0.0, 1.677182686980863E9, 0.0, 2023-02-23 12:04:46.980
71.0, 12403.83236453919, 18835.457424575976, 0.0, 0.0, 0.0, 0.0, 0.0, 0.0, 0.318, 0.634, -0.716, 192.0, 0.0, 0.0, 0.0, 0.0, 0.0, 0.0, 0.0, 0.0, 0.0, 1.677182686988982E9, 0.0, 2023-02-23 12:04:46.988
72.0, 12410.493184386873, 18846.67800029254, 0.0, 0.0, 0.0, 0.0, 0.0, 0.0, 0.318, 0.634, -0.716, 192.0, 0.0, 0.0, 0.0, 0.0, 0.0, 0.0, 0.0, 0.0, 0.0, 1.677182686988999E9, 0.0, 2023-02-23 12:04:46.988
