%OpenBCI Raw EEG Data
%Number of channels = 8
%Sample Rate = 250 Hz
%Board = OpenBCI_GUI$BoardCytonSerial
Sample Index, EXG Channel 0, EXG Channel 1, EXG Channel 2, EXG Channel 3, EXG Channel 4, EXG Channel 5, EXG Channel 6, EXG Channel 7, Accel Channel 0, Accel Channel 1, Accel Channel 2, Other, Other, Other, Other, Other, Other, Other, Analog Channel 0, Analog Channel 1, Analog Channel 2, Timestamp, Other, Timestamp (Formatted)
172.0, 10835.589270065937, 14500.604808402635, 0.0, 0.0, 0.0, 0.0, 0.0, 0.0, 0.0, 0.0, 0.0, 192.0, 0.0, 0.0, 0.0, 0.0, 0.0, 0.0, 0.0, 0.0, 0.0, 1.677707754875506E9, 0.0, 2023-03-01 13:55:54.875
173.0, 10831.118921174875, 14498.548447912748, 0.0, 0.0, 0.0, 0.0, 0.0, 0.0, 0.0, 0.0, 0.0, 192.0, 0.0, 0.0, 0.0, 0.0, 0.0, 0.0, 0.0, 0.0, 0.0, 1.677707754875525E9, 0.0, 2023-03-01 13:55:54.875
174.0, 10827.09560717292, 14493.899285066043, 0.0, 0.0, 0.0, 0.0, 0.0, 0.0, -0.51, -0.704, 0.528, 192.0, 240.0, 16.0, 234.0, 0.0, 16.0, 128.0, 0.0, 0.0, 0.0, 1.677707754875532E9, 0.0, 2023-03-01 13:55:54.875
175.0, 10832.772950264567, 14499.219000246407, 0.0, 0.0, 0.0, 0.0, 0.0, 0.0, -0.51, -0.704, 0.528, 192.0, 0.0, 0.0, 0.0, 0.0, 0.0, 0.0, 0.0, 0.0, 0.0, 1.677707754875541E9, 0.0, 2023-03-01 13:55:54.875
176.0, 10836.19276716623, 14502.236485747873, 0.0, 0.0, 0.0, 0.0, 0.0, 0.0, -0.51, -0.704, 0.528, 192.0, 0.0, 0.0, 0.0, 0.0, 0.0, 0.0, 0.0, 0.0, 0.0, 1.677707754875548E9, 0.0, 2023-03-01 13:55:54.875
177.0, 10832.728246775658, 14503.331721226183, 0.0, 0.0, 0.0, 0.0, 0.0, 0.0, -0.51, -0.704, 0.528, 192.0, 0.0, 0.0, 0.0, 0.0, 0.0, 0.0, 0.0, 0.0, 0.0, 1.677707754875555E9, 0.0, 2023-03-01 13:55:54.875
0.0, 0.0, 0.0, 0.0, 0.0, 0.0, 0.0, 0.0, 0.0, -0.51, -0.704, 0.528, 192.0, 0.0, 0.0, 0.0, 0.0, 0.0, 0.0, 0.0, 0.0, 0.0, 1.6777077549466E9, 0.0, 2023-03-01 13:55:54.946
1.0, 11234.612612082079, 14927.791348432464, 0.0, 0.0, 0.0, 0.0, 0.0, 0.0, -0.402, -0.764, 0.528, 192.0, 243.0, 112.0, 232.0, 32.0, 16.0, 128.0, 0.0, 0.0, 0.0, 1.677707754953303E9, 0.0, 2023-03-01 13:55:54.953
2.0, 11237.384228394536, 14929.892412411264, 0.0, 0.0, 0.0, 0.0, 0.0, 0.0, -0.402, -0.764, 0.528, 192.0, 0.0, 0.0, 0.0, 0.0, 0.0, 0.0, 0.0, 0.0, 0.0, 1.677707754959393E9, 0.0, 2023-03-01 13:55:54.959
3.0, 11246.816664554675, 14937.134377614782, 0.0, 0.0, 0.0, 0.0, 0.0, 0.0, -0.402, -0.764, 0.528, 192.0, 0.0, 0.0, 0.0, 0.0, 0.0, 0.0, 0.0, 0.0, 0.0, 1.677707754959409E9, 0.0, 2023-03-01 13:55:54.959
4.0, 11242.458074385891, 14932.395807790257, 0.0, 0.0, 0.0, 0.0, 0.0, 0.0, -0.402, -0.764, 0.528, 192.0, 0.0, 0.0, 0.0, 0.0, 0.0, 0.0, 0.0, 0.0, 0.0, 1.677707754967542E9, 0.0, 2023-03-01 13:55:54.967
5.0, 11241.161673207484, 14930.250040322548, 0.0, 0.0, 0.0, 0.0, 0.0, 0.0, -0.402, -0.764, 0.528, 192.0, 0.0, 0.0, 0.0, 0.0, 0.0, 0.0, 0.0, 0.0, 0.0, 1.677707754967555E9, 0.0, 2023-03-01 13:55:54.967
6.0, 11234.567908593168, 14923.835089663875, 0.0, 0.0, 0.0, 0.0, 0.0, 0.0, -0.402, -0.764, 0.528, 192.0, 0.0, 0.0, 0.0, 0.0, 0.0, 0.0, 0.0, 0.0, 0.0, 1.677707754975539E9, 0.0, 2023-03-01 13:55:54.975
7.0, 11244.55913836469, 14933.71456071312, 0.0, 0.0, 0.0, 0.0, 0.0, 0.0, -0.402, -0.764, 0.528, 192.0, 0.0, 0.0, 0.0, 0.0, 0.0, 0.0, 0.0, 0.0, 0.0, 1.677707754975558E9, 0.0, 2023-03-01 13:55:54.975
8.0, 11243.799179053209, 14926.606705976334, 0.0, 0.0, 0.0, 0.0, 0.0, 0.0, -0.36, -0.798, 0.524, 192.0, 244.0, 192.0, 231.0, 16.0, 16.0, 96.0, 0.0, 0.0, 0.0, 1.677707754982234E9, 0.0, 2023-03-01 13:55:54.982
9.0, 11238.010077239285, 14929.691246711165, 0.0, 0.0, 0.0, 0.0, 0.0, 0.0, -0.36, -0.798, 0.524, 192.0, 0.0, 0.0, 0.0, 0.0, 0.0, 0.0, 0.0, 0.0, 0.0, 1.677707754982258E9, 0.0, 2023-03-01 13:55:54.982
10.0, 11235.529033604746, 14925.936153642673, 0.0, 0.0, 0.0, 0.0, 0.0, 0.0, -0.36, -0.798, 0.524, 192.0, 0.0, 0.0, 0.0, 0.0, 0.0, 0.0, 0.0, 0.0, 0.0, 1.677707754990084E9, 0.0, 2023-03-01 13:55:54.990
11.0, 11240.64758308501, 14929.534784499978, 0.0, 0.0, 0.0, 0.0, 0.0, 0.0, -0.36, -0.798, 0.524, 192.0, 0.0, 0.0, 0.0, 0.0, 0.0, 0.0, 0.0, 0.0, 0.0, 1.677707754990108E9, 0.0, 2023-03-01 13:55:54.990
12.0, 11239.261774928782, 14927.903107154742, 0.0, 0.0, 0.0, 0.0, 0.0, 0.0, -0.36, -0.798, 0.524, 192.0, 0.0, 0.0, 0.0, 0.0, 0.0, 0.0, 0.0, 0.0, 0.0, 1.677707754998293E9, 0.0, 2023-03-01 13:55:54.998
13.0, 11237.540690605723, 14925.913801898218, 0.0, 0.0, 0.0, 0.0, 0.0, 0.0, -0.36, -0.798, 0.524, 192.0, 0.0, 0.0, 0.0, 0.0, 0.0, 0.0, 0.0, 0.0, 0.0, 1.677707754998306E9, 0.0, 2023-03-01 13:55:54.998
14.0, 11230.388132380025, 14917.75541517203, 0.0, 0.0, 0.0, 0.0, 0.0, 0.0, -0.36, -0.798, 0.524, 192.0, 0.0, 0.0, 0.0, 0.0, 0.0, 0.0, 0.0, 0.0, 0.0, 1.677707755004731E9, 0.0, 2023-03-01 13:55:55.004
15.0, 11232.310382403182, 14918.180098316681, 0.0, 0.0, 0.0, 0.0, 0.0, 0.0, -0.36, -0.798, 0.524, 192.0, 0.0, 0.0, 0.0, 0.0, 0.0, 0.0, 0.0, 0.0, 0.0, 1.677707755004745E9, 0.0, 2023-03-01 13:55:55.004
16.0, 11243.016867997274, 14926.517298998511, 0.0, 0.0, 0.0, 0.0, 0.0, 0.0, -0.36, -0.798, 0.524, 192.0, 0.0, 0.0, 0.0, 0.0, 0.0, 0.0, 0.0, 0.0, 0.0, 1.677707755011879E9, 0.0, 2023-03-01 13:55:55.011
17.0, 11240.088789473628, 14926.785519931975, 0.0, 0.0, 0.0, 0.0, 0.0, 0.0, -0.36, -0.798, 0.524, 192.0, 0.0, 0.0, 0.0, 0.0, 0.0, 0.0, 0.0, 0.0, 0.0, 1.677707755019824E9, 0.0, 2023-03-01 13:55:55.019
18.0, 11237.384228394536, 14927.120796098805, 0.0, 0.0, 0.0, 0.0, 0.0, 0.0, -0.338, -0.812, 0.52, 192.0, 245.0, 112.0, 230.0, 160.0, 16.0, 64.0, 0.0, 0.0, 0.0, 1.677707755019848E9, 0.0, 2023-03-01 13:55:55.019
19.0, 11237.205414438893, 14927.880755410286, 0.0, 0.0, 0.0, 0.0, 0.0, 0.0, -0.338, -0.812, 0.52, 192.0, 0.0, 0.0, 0.0, 0.0, 0.0, 0.0, 0.0, 0.0, 0.0, 1.677707755027887E9, 0.0, 2023-03-01 13:55:55.027
20.0, 11242.212205196884, 14929.087749610871, 0.0, 0.0, 0.0, 0.0, 0.0, 0.0, -0.338, -0.812, 0.52, 192.0, 0.0, 0.0, 0.0, 0.0, 0.0, 0.0, 0.0, 0.0, 0.0, 1.677707755027905E9, 0.0, 2023-03-01 13:55:55.027
21.0, 11238.770036550766, 14929.490081011068, 0.0, 0.0, 0.0, 0.0, 0.0, 0.0, -0.338, -0.812, 0.52, 192.0, 0.0, 0.0, 0.0, 0.0, 0.0, 0.0, 0.0, 0.0, 0.0, 1.677707755034473E9, 0.0, 2023-03-01 13:55:55.034
22.0, 11232.265678914271, 14925.176194331194, 0.0, 0.0, 0.0, 0.0, 0.0, 0.0, -0.338, -0.812, 0.52, 192.0, 0.0, 0.0, 0.0, 0.0, 0.0, 0.0, 0.0, 0.0, 0.0, 1.677707755034491E9, 0.0, 2023-03-01 13:55:55.034
23.0, 11230.589298080124, 14921.309342540426, 0.0, 0.0, 0.0, 0.0, 0.0, 0.0, -0.338, -0.812, 0.52, 192.0, 0.0, 0.0, 0.0, 0.0, 0.0, 0.0, 0.0, 0.0, 0.0, 1.677707755042396E9, 0.0, 2023-03-01 13:55:55.042
24.0, 11233.852652770598, 14924.684455953176, 0.0, 0.0, 0.0, 0.0, 0.0, 0.0, -0.338, -0.812, 0.52, 192.0, 0.0, 0.0, 0.0, 0.0, 0.0, 0.0, 0.0, 0.0, 0.0, 1.67770775504241E9, 0.0, 2023-03-01 13:55:55.042
25.0, 11235.104350460095, 14927.14314784326, 0.0, 0.0, 0.0, 0.0, 0.0, 0.0, -0.338, -0.812, 0.52, 192.0, 0.0, 0.0, 0.0, 0.0, 0.0, 0.0, 0.0, 0.0, 0.0, 1.677707755050527E9, 0.0, 2023-03-01 13:55:55.050
26.0, 11225.56015557768, 14921.778729173986, 0.0, 0.0, 0.0, 0.0, 0.0, 0.0, -0.338, -0.812, 0.52, 192.0, 0.0, 0.0, 0.0, 0.0, 0.0, 0.0, 0.0, 0.0, 0.0, 1.67770775505054E9, 0.0, 2023-03-01 13:55:55.050
27.0, 11223.12381543205, 14920.839955906864, 0.0, 0.0, 0.0, 0.0, 0.0, 0.0, -0.338, -0.812, 0.52, 192.0, 0.0, 0.0, 0.0, 0.0, 0.0, 0.0, 0.0, 0.0, 0.0, 1.67770775505751E9, 0.0, 2023-03-01 13:55:55.057
28.0, 11228.152957934495, 14921.041121606962, 0.0, 0.0, 0.0, 0.0, 0.0, 0.0, -0.326, -0.8160000000000001, 0.518, 192.0, 245.0, 208.0, 230.0, 128.0, 16.0, 48.0, 0.0, 0.0, 0.0, 1.677707755057519E9, 0.0, 2023-03-01 13:55:55.057
29.0, 11228.085902701128, 14920.817604162408, 0.0, 0.0, 0.0, 0.0, 0.0, 0.0, -0.326, -0.8160000000000001, 0.518, 192.0, 0.0, 0.0, 0.0, 0.0, 0.0, 0.0, 0.0, 0.0, 0.0, 1.677707755064969E9, 0.0, 2023-03-01 13:55:55.064
30.0, 11224.353161377092, 14919.543554728456, 0.0, 0.0, 0.0, 0.0, 0.0, 0.0, -0.326, -0.8160000000000001, 0.518, 192.0, 0.0, 0.0, 0.0, 0.0, 0.0, 0.0, 0.0, 0.0, 0.0, 1.677707755064987E9, 0.0, 2023-03-01 13:55:55.064
31.0, 11221.045103197706, 14916.794290160453, 0.0, 0.0, 0.0, 0.0, 0.0, 0.0, -0.326, -0.8160000000000001, 0.518, 192.0, 0.0, 0.0, 0.0, 0.0, 0.0, 0.0, 0.0, 0.0, 0.0, 1.677707755071928E9, 0.0, 2023-03-01 13:55:55.071
32.0, 11226.297763144705, 14915.117909326305, 0.0, 0.0, 0.0, 0.0, 0.0, 0.0, -0.326, -0.8160000000000001, 0.518, 192.0, 0.0, 0.0, 0.0, 0.0, 0.0, 0.0, 0.0, 0.0, 0.0, 1.677707755080046E9, 0.0, 2023-03-01 13:55:55.080
33.0, 11227.817681767665, 14921.532859984978, 0.0, 0.0, 0.0, 0.0, 0.0, 0.0, -0.326, -0.8160000000000001, 0.518, 192.0, 0.0, 0.0, 0.0, 0.0, 0.0, 0.0, 0.0, 0.0, 0.0, 1.677707755080062E9, 0.0, 2023-03-01 13:55:55.080
34.0, 11221.939172975919, 14916.727234927088, 0.0, 0.0, 0.0, 0.0, 0.0, 0.0, -0.326, -0.8160000000000001, 0.518, 192.0, 0.0, 0.0, 0.0, 0.0, 0.0, 0.0, 0.0, 0.0, 0.0, 1.677707755087107E9, 0.0, 2023-03-01 13:55:55.087
35.0, 11220.687475286422, 14919.320037283904, 0.0, 0.0, 0.0, 0.0, 0.0, 0.0, -0.326, -0.8160000000000001, 0.518, 192.0, 0.0, 0.0, 0.0, 0.0, 0.0, 0.0, 0.0, 0.0, 0.0, 1.67770775508712E9, 0.0, 2023-03-01 13:55:55.087
36.0, 11230.857519013587, 14921.197583818148, 0.0, 0.0, 0.0, 0.0, 0.0, 0.0, -0.326, -0.8160000000000001, 0.518, 192.0, 0.0, 0.0, 0.0, 0.0, 0.0, 0.0, 0.0, 0.0, 0.0, 1.677707755094654E9, 0.0, 2023-03-01 13:55:55.094
37.0, 11226.78950152272, 14915.43083374868, 0.0, 0.0, 0.0, 0.0, 0.0, 0.0, -0.326, -0.8160000000000001, 0.518, 192.0, 0.0, 0.0, 0.0, 0.0, 0.0, 0.0, 0.0, 0.0, 0.0, 1.677707755094683E9, 0.0, 2023-03-01 13:55:55.094
38.0, 11219.033446196729, 14915.497888982045, 0.0, 0.0, 0.0, 0.0, 0.0, 0.0, -0.316, -0.8240000000000001, 0.516, 192.0, 246.0, 32.0, 230.0, 64.0, 16.0, 32.0, 0.0, 0.0, 0.0, 1.677707755102712E9, 0.0, 2023-03-01 13:55:55.102
39.0, 11220.799234008698, 14917.710711683121, 0.0, 0.0, 0.0, 0.0, 0.0, 0.0, -0.316, -0.8240000000000001, 0.516, 192.0, 0.0, 0.0, 0.0, 0.0, 0.0, 0.0, 0.0, 0.0, 0.0, 1.677707755102725E9, 0.0, 2023-03-01 13:55:55.102
40.0, 11229.002324223797, 14921.309342540426, 0.0, 0.0, 0.0, 0.0, 0.0, 0.0, -0.316, -0.8240000000000001, 0.516, 192.0, 0.0, 0.0, 0.0, 0.0, 0.0, 0.0, 0.0, 0.0, 0.0, 1.677707755110751E9, 0.0, 2023-03-01 13:55:55.110
41.0, 11230.477539357846, 14921.152880329239, 0.0, 0.0, 0.0, 0.0, 0.0, 0.0, -0.316, -0.8240000000000001, 0.516, 192.0, 0.0, 0.0, 0.0, 0.0, 0.0, 0.0, 0.0, 0.0, 0.0, 1.67770775511077E9, 0.0, 2023-03-01 13:55:55.110
42.0, 11229.27054515726, 14915.117909326305, 0.0, 0.0, 0.0, 0.0, 0.0, 0.0, -0.316, -0.8240000000000001, 0.516, 192.0, 0.0, 0.0, 0.0, 0.0, 0.0, 0.0, 0.0, 0.0, 0.0, 1.677707755117216E9, 0.0, 2023-03-01 13:55:55.117
43.0, 11225.738969533322, 14915.631999448777, 0.0, 0.0, 0.0, 0.0, 0.0, 0.0, -0.316, -0.8240000000000001, 0.516, 192.0, 0.0, 0.0, 0.0, 0.0, 0.0, 0.0, 0.0, 0.0, 0.0, 1.677707755117232E9, 0.0, 2023-03-01 13:55:55.117
44.0, 11234.344391148614, 14918.940057628162, 0.0, 0.0, 0.0, 0.0, 0.0, 0.0, -0.316, -0.8240000000000001, 0.516, 192.0, 0.0, 0.0, 0.0, 0.0, 0.0, 0.0, 0.0, 0.0, 0.0, 1.677707755125318E9, 0.0, 2023-03-01 13:55:55.125
45.0, 11240.088789473628, 14922.136357085272, 0.0, 0.0, 0.0, 0.0, 0.0, 0.0, -0.316, -0.8240000000000001, 0.516, 192.0, 0.0, 0.0, 0.0, 0.0, 0.0, 0.0, 0.0, 0.0, 0.0, 1.677707755125334E9, 0.0, 2023-03-01 13:55:55.125
46.0, 11236.98189699434, 14927.925458899195, 0.0, 0.0, 0.0, 0.0, 0.0, 0.0, -0.316, -0.8240000000000001, 0.516, 192.0, 0.0, 0.0, 0.0, 0.0, 0.0, 0.0, 0.0, 0.0, 0.0, 1.677707755132404E9, 0.0, 2023-03-01 13:55:55.132
47.0, 11232.377437636547, 14925.064435608916, 0.0, 0.0, 0.0, 0.0, 0.0, 0.0, -0.316, -0.8240000000000001, 0.516, 192.0, 0.0, 0.0, 0.0, 0.0, 0.0, 0.0, 0.0, 0.0, 0.0, 1.677707755140448E9, 0.0, 2023-03-01 13:55:55.140
48.0, 11230.36578063557, 14923.320999541404, 0.0, 0.0, 0.0, 0.0, 0.0, 0.0, -0.314, -0.8240000000000001, 0.518, 192.0, 246.0, 48.0, 230.0, 64.0, 16.0, 48.0, 0.0, 0.0, 0.0, 1.677707755140465E9, 0.0, 2023-03-01 13:55:55.140
49.0, 11234.880833015543, 14925.109139097827, 0.0, 0.0, 0.0, 0.0, 0.0, 0.0, -0.314, -0.8240000000000001, 0.518, 192.0, 0.0, 0.0, 0.0, 0.0, 0.0, 0.0, 0.0, 0.0, 0.0, 1.677707755148495E9, 0.0, 2023-03-01 13:55:55.148
50.0, 11237.048952227708, 14923.611572219323, 0.0, 0.0, 0.0, 0.0, 0.0, 0.0, -0.314, -0.8240000000000001, 0.518, 192.0, 0.0, 0.0, 0.0, 0.0, 0.0, 0.0, 0.0, 0.0, 0.0, 1.677707755148507E9, 0.0, 2023-03-01 13:55:55.148
51.0, 11228.734103290333, 14919.834127406375, 0.0, 0.0, 0.0, 0.0, 0.0, 0.0, -0.314, -0.8240000000000001, 0.518, 192.0, 0.0, 0.0, 0.0, 0.0, 0.0, 0.0, 0.0, 0.0, 0.0, 1.677707755154907E9, 0.0, 2023-03-01 13:55:55.154
52.0, 11227.50475734529, 14921.041121606962, 0.0, 0.0, 0.0, 0.0, 0.0, 0.0, -0.314, -0.8240000000000001, 0.518, 192.0, 0.0, 0.0, 0.0, 0.0, 0.0, 0.0, 0.0, 0.0, 0.0, 1.677707755154926E9, 0.0, 2023-03-01 13:55:55.154
53.0, 11232.265678914271, 14925.734987942576, 0.0, 0.0, 0.0, 0.0, 0.0, 0.0, -0.314, -0.8240000000000001, 0.518, 192.0, 0.0, 0.0, 0.0, 0.0, 0.0, 0.0, 0.0, 0.0, 0.0, 1.677707755162895E9, 0.0, 2023-03-01 13:55:55.162
54.0, 11232.399789381003, 14921.33169428488, 0.0, 0.0, 0.0, 0.0, 0.0, 0.0, -0.314, -0.8240000000000001, 0.518, 192.0, 0.0, 0.0, 0.0, 0.0, 0.0, 0.0, 0.0, 0.0, 0.0, 1.677707755162911E9, 0.0, 2023-03-01 13:55:55.162
55.0, 11222.766187520765, 14919.320037283904, 0.0, 0.0, 0.0, 0.0, 0.0, 0.0, -0.314, -0.8240000000000001, 0.518, 192.0, 0.0, 0.0, 0.0, 0.0, 0.0, 0.0, 0.0, 0.0, 0.0, 1.677707755170032E9, 0.0, 2023-03-01 13:55:55.170
56.0, 11228.979972479341, 14929.19950833315, 0.0, 0.0, 0.0, 0.0, 0.0, 0.0, -0.314, -0.8240000000000001, 0.518, 192.0, 0.0, 0.0, 0.0, 0.0, 0.0, 0.0, 0.0, 0.0, 0.0, 1.677707755170049E9, 0.0, 2023-03-01 13:55:55.170
57.0, 11254.863292558586, 14948.936098687185, 0.0, 0.0, 0.0, 0.0, 0.0, 0.0, -0.314, -0.8240000000000001, 0.518, 192.0, 0.0, 0.0, 0.0, 0.0, 0.0, 0.0, 0.0, 0.0, 0.0, 1.677707755177588E9, 0.0, 2023-03-01 13:55:55.177
58.0, 11249.431818655947, 14931.94877290115, 0.0, 0.0, 0.0, 0.0, 0.0, 0.0, -0.314, -0.8240000000000001, 0.518, 192.0, 0.0, 0.0, 0.0, 0.0, 0.0, 0.0, 0.0, 0.0, 0.0, 1.677707755177628E9, 0.0, 2023-03-01 13:55:55.177
59.0, 11221.827414253643, 14908.300627267436, 0.0, 0.0, 0.0, 0.0, 0.0, 0.0, -0.314, -0.8280000000000001, 0.522, 192.0, 246.0, 48.0, 230.0, 32.0, 16.0, 80.0, 0.0, 0.0, 0.0, 1.677707755185452E9, 0.0, 2023-03-01 13:55:55.185
60.0, 11208.483422813824, 14900.410461474714, 0.0, 0.0, 0.0, 0.0, 0.0, 0.0, -0.314, -0.8280000000000001, 0.522, 192.0, 0.0, 0.0, 0.0, 0.0, 0.0, 0.0, 0.0, 0.0, 0.0, 1.677707755185468E9, 0.0, 2023-03-01 13:55:55.185
61.0, 11215.971257206353, 14899.181115529671, 0.0, 0.0, 0.0, 0.0, 0.0, 0.0, -0.314, -0.8280000000000001, 0.522, 192.0, 0.0, 0.0, 0.0, 0.0, 0.0, 0.0, 0.0, 0.0, 0.0, 1.677707755192713E9, 0.0, 2023-03-01 13:55:55.192
62.0, 11217.178251406938, 14892.252074748527, 0.0, 0.0, 0.0, 0.0, 0.0, 0.0, -0.314, -0.8280000000000001, 0.522, 192.0, 0.0, 0.0, 0.0, 0.0, 0.0, 0.0, 0.0, 0.0, 0.0, 1.677707755192732E9, 0.0, 2023-03-01 13:55:55.192
63.0, 11209.355140847581, 14885.255978734014, 0.0, 0.0, 0.0, 0.0, 0.0, 0.0, -0.314, -0.8280000000000001, 0.522, 192.0, 0.0, 0.0, 0.0, 0.0, 0.0, 0.0, 0.0, 0.0, 0.0, 1.67770775519928E9, 0.0, 2023-03-01 13:55:55.199
64.0, 11198.02280640874, 14874.907121051208, 0.0, 0.0, 0.0, 0.0, 0.0, 0.0, -0.314, -0.8280000000000001, 0.522, 192.0, 0.0, 0.0, 0.0, 0.0, 0.0, 0.0, 0.0, 0.0, 0.0, 1.677707755207233E9, 0.0, 2023-03-01 13:55:55.207
65.0, 11195.631169752023, 14862.881882534253, 0.0, 0.0, 0.0, 0.0, 0.0, 0.0, -0.314, -0.8280000000000001, 0.522, 192.0, 0.0, 0.0, 0.0, 0.0, 0.0, 0.0, 0.0, 0.0, 0.0, 1.677707755207265E9, 0.0, 2023-03-01 13:55:55.207
66.0, 11196.88286744152, 14860.758466810998, 0.0, 0.0, 0.0, 0.0, 0.0, 0.0, -0.314, -0.8280000000000001, 0.522, 192.0, 0.0, 0.0, 0.0, 0.0, 0.0, 0.0, 0.0, 0.0, 0.0, 1.677707755215245E9, 0.0, 2023-03-01 13:55:55.215
67.0, 11187.852762681576, 14856.22106268657, 0.0, 0.0, 0.0, 0.0, 0.0, 0.0, -0.314, -0.8280000000000001, 0.522, 192.0, 0.0, 0.0, 0.0, 0.0, 0.0, 0.0, 0.0, 0.0, 0.0, 1.677707755215268E9, 0.0, 2023-03-01 13:55:55.215
68.0, 11178.30856779916, 14852.868301018276, 0.0, 0.0, 0.0, 0.0, 0.0, 0.0, -0.314, -0.8280000000000001, 0.522, 192.0, 0.0, 0.0, 0.0, 0.0, 0.0, 0.0, 0.0, 0.0, 0.0, 1.677707755222233E9, 0.0, 2023-03-01 13:55:55.222
69.0, 11198.626303509034, 14867.285176191948, 0.0, 0.0, 0.0, 0.0, 0.0, 0.0, -0.314, -0.8280000000000001, 0.52, 192.0, 246.0, 48.0, 230.0, 32.0, 16.0, 64.0, 0.0, 0.0, 0.0, 1.677707755222243E9, 0.0, 2023-03-01 13:55:55.222
70.0, 11200.213277365361, 14866.435809902647, 0.0, 0.0, 0.0, 0.0, 0.0, 0.0, -0.314, -0.8280000000000001, 0.52, 192.0, 0.0, 0.0, 0.0, 0.0, 0.0, 0.0, 0.0, 0.0, 0.0, 1.677707755229791E9, 0.0, 2023-03-01 13:55:55.229
71.0, 11197.016977908252, 14869.162722726194, 0.0, 0.0, 0.0, 0.0, 0.0, 0.0, -0.314, -0.8280000000000001, 0.52, 192.0, 0.0, 0.0, 0.0, 0.0, 0.0, 0.0, 0.0, 0.0, 0.0, 1.677707755229811E9, 0.0, 2023-03-01 13:55:55.229
72.0, 11200.995588421296, 14871.934339038651, 0.0, 0.0, 0.0, 0.0, 0.0, 0.0, -0.314, -0.8280000000000001, 0.52, 192.0, 0.0, 0.0, 0.0, 0.0, 0.0, 0.0, 0.0, 0.0, 0.0, 1.67770775523787E9, 0.0, 2023-03-01 13:55:55.237
73.0, 11207.231725124328, 14875.152990240216, 0.0, 0.0, 0.0, 0.0, 0.0, 0.0, -0.314, -0.8280000000000001, 0.52, 192.0, 0.0, 0.0, 0.0, 0.0, 0.0, 0.0, 0.0, 0.0, 0.0, 1.677707755237881E9, 0.0, 2023-03-01 13:55:55.237
74.0, 11211.389149593015, 14877.477571663569, 0.0, 0.0, 0.0, 0.0, 0.0, 0.0, -0.314, -0.8280000000000001, 0.52, 192.0, 0.0, 0.0, 0.0, 0.0, 0.0, 0.0, 0.0, 0.0, 0.0, 1.677707755245847E9, 0.0, 2023-03-01 13:55:55.245
75.0, 11212.998475193795, 14879.243359475537, 0.0, 0.0, 0.0, 0.0, 0.0, 0.0, -0.314, -0.8280000000000001, 0.52, 192.0, 0.0, 0.0, 0.0, 0.0, 0.0, 0.0, 0.0, 0.0, 0.0, 1.67770775524587E9, 0.0, 2023-03-01 13:55:55.245
76.0, 11211.478556570835, 14878.572807141878, 0.0, 0.0, 0.0, 0.0, 0.0, 0.0, -0.314, -0.8280000000000001, 0.52, 192.0, 0.0, 0.0, 0.0, 0.0, 0.0, 0.0, 0.0, 0.0, 0.0, 1.677707755253967E9, 0.0, 2023-03-01 13:55:55.253
77.0, 11213.400806593992, 14881.120906009783, 0.0, 0.0, 0.0, 0.0, 0.0, 0.0, -0.314, -0.8280000000000001, 0.52, 192.0, 0.0, 0.0, 0.0, 0.0, 0.0, 0.0, 0.0, 0.0, 0.0, 1.677707755253984E9, 0.0, 2023-03-01 13:55:55.253
78.0, 11219.703998530389, 14885.27833047847, 0.0, 0.0, 0.0, 0.0, 0.0, 0.0, -0.314, -0.8280000000000001, 0.52, 192.0, 0.0, 0.0, 0.0, 0.0, 0.0, 0.0, 0.0, 0.0, 0.0, 1.677707755260047E9, 0.0, 2023-03-01 13:55:55.260
79.0, 11221.02275145325, 14890.37452821428, 0.0, 0.0, 0.0, 0.0, 0.0, 0.0, -0.308, -0.8280000000000001, 0.52, 192.0, 246.0, 96.0, 230.0, 32.0, 16.0, 64.0, 0.0, 0.0, 0.0, 1.677707755267589E9, 0.0, 2023-03-01 13:55:55.267
80.0, 11218.139376418518, 14890.620397403289, 0.0, 0.0, 0.0, 0.0, 0.0, 0.0, -0.308, -0.8280000000000001, 0.52, 192.0, 0.0, 0.0, 0.0, 0.0, 0.0, 0.0, 0.0, 0.0, 0.0, 1.677707755267671E9, 0.0, 2023-03-01 13:55:55.267
81.0, 11218.139376418518, 14890.352176469825, 0.0, 0.0, 0.0, 0.0, 0.0, 0.0, -0.308, -0.8280000000000001, 0.52, 192.0, 0.0, 0.0, 0.0, 0.0, 0.0, 0.0, 0.0, 0.0, 0.0, 1.677707755275531E9, 0.0, 2023-03-01 13:55:55.275
82.0, 11224.643734055011, 14892.90027533773, 0.0, 0.0, 0.0, 0.0, 0.0, 0.0, -0.308, -0.8280000000000001, 0.52, 192.0, 0.0, 0.0, 0.0, 0.0, 0.0, 0.0, 0.0, 0.0, 0.0, 1.677707755275544E9, 0.0, 2023-03-01 13:55:55.275
83.0, 11231.863347514076, 14896.834182361865, 0.0, 0.0, 0.0, 0.0, 0.0, 0.0, -0.308, -0.8280000000000001, 0.52, 192.0, 0.0, 0.0, 0.0, 0.0, 0.0, 0.0, 0.0, 0.0, 0.0, 1.677707755282082E9, 0.0, 2023-03-01 13:55:55.282
84.0, 11226.588335822624, 14901.349234741836, 0.0, 0.0, 0.0, 0.0, 0.0, 0.0, -0.308, -0.8280000000000001, 0.52, 192.0, 0.0, 0.0, 0.0, 0.0, 0.0, 0.0, 0.0, 0.0, 0.0, 1.677707755282094E9, 0.0, 2023-03-01 13:55:55.282
85.0, 11221.670952042456, 14898.912894596207, 0.0, 0.0, 0.0, 0.0, 0.0, 0.0, -0.308, -0.8280000000000001, 0.52, 192.0, 0.0, 0.0, 0.0, 0.0, 0.0, 0.0, 0.0, 0.0, 0.0, 1.67770775529013E9, 0.0, 2023-03-01 13:55:55.290
86.0, 11227.728274789844, 14900.924551597185, 0.0, 0.0, 0.0, 0.0, 0.0, 0.0, -0.308, -0.8280000000000001, 0.52, 192.0, 0.0, 0.0, 0.0, 0.0, 0.0, 0.0, 0.0, 0.0, 0.0, 1.677707755290155E9, 0.0, 2023-03-01 13:55:55.290
87.0, 11235.305516160193, 14900.656330663722, 0.0, 0.0, 0.0, 0.0, 0.0, 0.0, -0.308, -0.8280000000000001, 0.52, 192.0, 0.0, 0.0, 0.0, 0.0, 0.0, 0.0, 0.0, 0.0, 0.0, 1.677707755298586E9, 0.0, 2023-03-01 13:55:55.298
88.0, 11232.779769036742, 14901.729214397576, 0.0, 0.0, 0.0, 0.0, 0.0, 0.0, -0.308, -0.8280000000000001, 0.52, 192.0, 0.0, 0.0, 0.0, 0.0, 0.0, 0.0, 0.0, 0.0, 0.0, 1.677707755298603E9, 0.0, 2023-03-01 13:55:55.298
89.0, 11230.097559702106, 14899.583446929866, 0.0, 0.0, 0.0, 0.0, 0.0, 0.0, -0.306, -0.8260000000000001, 0.52, 192.0, 246.0, 112.0, 230.0, 48.0, 16.0, 64.0, 0.0, 0.0, 0.0, 1.677707755307524E9, 0.0, 2023-03-01 13:55:55.307
90.0, 11235.193757437917, 14902.645635920244, 0.0, 0.0, 0.0, 0.0, 0.0, 0.0, -0.306, -0.8260000000000001, 0.52, 192.0, 0.0, 0.0, 0.0, 0.0, 0.0, 0.0, 0.0, 0.0, 0.0, 1.677707755307541E9, 0.0, 2023-03-01 13:55:55.307
91.0, 11237.540690605723, 14904.09849930984, 0.0, 0.0, 0.0, 0.0, 0.0, 0.0, -0.306, -0.8260000000000001, 0.52, 192.0, 0.0, 0.0, 0.0, 0.0, 0.0, 0.0, 0.0, 0.0, 0.0, 1.677707755313641E9, 0.0, 2023-03-01 13:55:55.313
92.0, 11229.315248646171, 14897.169458528693, 0.0, 0.0, 0.0, 0.0, 0.0, 0.0, -0.306, -0.8260000000000001, 0.52, 192.0, 0.0, 0.0, 0.0, 0.0, 0.0, 0.0, 0.0, 0.0, 0.0, 1.677707755313652E9, 0.0, 2023-03-01 13:55:55.313
93.0, 11229.628173068544, 14899.538743440957, 0.0, 0.0, 0.0, 0.0, 0.0, 0.0, -0.306, -0.8260000000000001, 0.52, 192.0, 0.0, 0.0, 0.0, 0.0, 0.0, 0.0, 0.0, 0.0, 0.0, 1.677707755319878E9, 0.0, 2023-03-01 13:55:55.319
94.0, 11231.572774836157, 14902.444470220145, 0.0, 0.0, 0.0, 0.0, 0.0, 0.0, -0.306, -0.8260000000000001, 0.52, 192.0, 0.0, 0.0, 0.0, 0.0, 0.0, 0.0, 0.0, 0.0, 0.0, 1.677707755329293E9, 0.0, 2023-03-01 13:55:55.329
95.0, 11235.976068493852, 14907.652426678233, 0.0, 0.0, 0.0, 0.0, 0.0, 0.0, -0.306, -0.8260000000000001, 0.52, 192.0, 0.0, 0.0, 0.0, 0.0, 0.0, 0.0, 0.0, 0.0, 0.0, 1.677707755329304E9, 0.0, 2023-03-01 13:55:55.329
96.0, 11233.293859159216, 14901.28217950847, 0.0, 0.0, 0.0, 0.0, 0.0, 0.0, -0.306, -0.8260000000000001, 0.52, 192.0, 0.0, 0.0, 0.0, 0.0, 0.0, 0.0, 0.0, 0.0, 0.0, 1.677707755335387E9, 0.0, 2023-03-01 13:55:55.335
97.0, 11230.745760291311, 14901.416289975203, 0.0, 0.0, 0.0, 0.0, 0.0, 0.0, -0.306, -0.8260000000000001, 0.52, 192.0, 0.0, 0.0, 0.0, 0.0, 0.0, 0.0, 0.0, 0.0, 0.0, 1.677707755335442E9, 0.0, 2023-03-01 13:55:55.335
98.0, 11232.958582992385, 14906.71365341111, 0.0, 0.0, 0.0, 0.0, 0.0, 0.0, -0.306, -0.8260000000000001, 0.52, 192.0, 0.0, 0.0, 0.0, 0.0, 0.0, 0.0, 0.0, 0.0, 0.0, 1.67770775534237E9, 0.0, 2023-03-01 13:55:55.342
99.0, 11233.427969625947, 14906.914819111207, 0.0, 0.0, 0.0, 0.0, 0.0, 0.0, -0.314, -0.8300000000000001, 0.526, 192.0, 246.0, 48.0, 230.0, 16.0, 16.0, 112.0, 0.0, 0.0, 0.0, 1.677707755342386E9, 0.0, 2023-03-01 13:55:55.342
100.0, 11229.69522830191, 14906.28897026646, 0.0, 0.0, 0.0, 0.0, 0.0, 0.0, -0.314, -0.8300000000000001, 0.526, 192.0, 0.0, 0.0, 0.0, 0.0, 0.0, 0.0, 0.0, 0.0, 0.0, 1.677707755350386E9, 0.0, 2023-03-01 13:55:55.350
101.0, 11224.755492777287, 14905.171383043693, 0.0, 0.0, 0.0, 0.0, 0.0, 0.0, -0.314, -0.8300000000000001, 0.526, 192.0, 0.0, 0.0, 0.0, 0.0, 0.0, 0.0, 0.0, 0.0, 0.0, 1.67770775535041E9, 0.0, 2023-03-01 13:55:55.350
102.0, 11224.822548010654, 14900.365757985803, 0.0, 0.0, 0.0, 0.0, 0.0, 0.0, -0.314, -0.8300000000000001, 0.526, 192.0, 0.0, 0.0, 0.0, 0.0, 0.0, 0.0, 0.0, 0.0, 0.0, 1.677707755358492E9, 0.0, 2023-03-01 13:55:55.358
103.0, 11228.64469631251, 14901.930380097674, 0.0, 0.0, 0.0, 0.0, 0.0, 0.0, -0.314, -0.8300000000000001, 0.526, 192.0, 0.0, 0.0, 0.0, 0.0, 0.0, 0.0, 0.0, 0.0, 0.0, 1.67770775535851E9, 0.0, 2023-03-01 13:55:55.358
104.0, 11232.265678914271, 14901.483345208568, 0.0, 0.0, 0.0, 0.0, 0.0, 0.0, -0.314, -0.8300000000000001, 0.526, 192.0, 0.0, 0.0, 0.0, 0.0, 0.0, 0.0, 0.0, 0.0, 0.0, 1.677707755365055E9, 0.0, 2023-03-01 13:55:55.365
105.0, 11240.312306918182, 14907.272447022493, 0.0, 0.0, 0.0, 0.0, 0.0, 0.0, -0.314, -0.8300000000000001, 0.526, 192.0, 0.0, 0.0, 0.0, 0.0, 0.0, 0.0, 0.0, 0.0, 0.0, 1.677707755365068E9, 0.0, 2023-03-01 13:55:55.365
106.0, 11246.794312810222, 14913.061548836416, 0.0, 0.0, 0.0, 0.0, 0.0, 0.0, -0.314, -0.8300000000000001, 0.526, 192.0, 0.0, 0.0, 0.0, 0.0, 0.0, 0.0, 0.0, 0.0, 0.0, 1.677707755372983E9, 0.0, 2023-03-01 13:55:55.372
107.0, 11236.065475471672, 14904.724348154587, 0.0, 0.0, 0.0, 0.0, 0.0, 0.0, -0.314, -0.8300000000000001, 0.526, 192.0, 0.0, 0.0, 0.0, 0.0, 0.0, 0.0, 0.0, 0.0, 0.0, 1.677707755372993E9, 0.0, 2023-03-01 13:55:55.372
108.0, 11222.676780542944, 14895.962464328108, 0.0, 0.0, 0.0, 0.0, 0.0, 0.0, -0.314, -0.8300000000000001, 0.526, 192.0, 0.0, 0.0, 0.0, 0.0, 0.0, 0.0, 0.0, 0.0, 0.0, 1.677707755380029E9, 0.0, 2023-03-01 13:55:55.380
109.0, 11215.07718742814, 14891.581522414866, 0.0, 0.0, 0.0, 0.0, 0.0, 0.0, -0.308, -0.8280000000000001, 0.522, 192.0, 246.0, 96.0, 230.0, 32.0, 16.0, 80.0, 0.0, 0.0, 0.0, 1.677707755387101E9, 0.0, 2023-03-01 13:55:55.387
110.0, 11219.88281248603, 14892.788516615454, 0.0, 0.0, 0.0, 0.0, 0.0, 0.0, -0.308, -0.8280000000000001, 0.522, 192.0, 0.0, 0.0, 0.0, 0.0, 0.0, 0.0, 0.0, 0.0, 0.0, 1.67770775538712E9, 0.0, 2023-03-01 13:55:55.387
111.0, 11230.7010568024, 14897.415327717701, 0.0, 0.0, 0.0, 0.0, 0.0, 0.0, -0.308, -0.8280000000000001, 0.522, 192.0, 0.0, 0.0, 0.0, 0.0, 0.0, 0.0, 0.0, 0.0, 0.0, 1.677707755394834E9, 0.0, 2023-03-01 13:55:55.394
112.0, 11239.060609228685, 14904.679644665677, 0.0, 0.0, 0.0, 0.0, 0.0, 0.0, -0.308, -0.8280000000000001, 0.522, 192.0, 0.0, 0.0, 0.0, 0.0, 0.0, 0.0, 0.0, 0.0, 0.0, 1.677707755394852E9, 0.0, 2023-03-01 13:55:55.394
113.0, 11230.544594591212, 14898.957598085119, 0.0, 0.0, 0.0, 0.0, 0.0, 0.0, -0.308, -0.8280000000000001, 0.522, 192.0, 0.0, 0.0, 0.0, 0.0, 0.0, 0.0, 0.0, 0.0, 0.0, 1.677707755402672E9, 0.0, 2023-03-01 13:55:55.402
114.0, 11226.968315478363, 14898.085880051362, 0.0, 0.0, 0.0, 0.0, 0.0, 0.0, -0.308, -0.8280000000000001, 0.522, 192.0, 0.0, 0.0, 0.0, 0.0, 0.0, 0.0, 0.0, 0.0, 0.0, 1.677707755402686E9, 0.0, 2023-03-01 13:55:55.402
115.0, 11229.203489923893, 14895.023691060984, 0.0, 0.0, 0.0, 0.0, 0.0, 0.0, -0.308, -0.8280000000000001, 0.522, 192.0, 0.0, 0.0, 0.0, 0.0, 0.0, 0.0, 0.0, 0.0, 0.0, 1.677707755410752E9, 0.0, 2023-03-01 13:55:55.410
116.0, 11236.087827216128, 14896.387147472758, 0.0, 0.0, 0.0, 0.0, 0.0, 0.0, -0.308, -0.8280000000000001, 0.522, 192.0, 0.0, 0.0, 0.0, 0.0, 0.0, 0.0, 0.0, 0.0, 0.0, 1.677707755410766E9, 0.0, 2023-03-01 13:55:55.410
117.0, 11232.17627193645, 14899.695205652144, 0.0, 0.0, 0.0, 0.0, 0.0, 0.0, -0.308, -0.8280000000000001, 0.522, 192.0, 0.0, 0.0, 0.0, 0.0, 0.0, 0.0, 0.0, 0.0, 0.0, 1.677707755417316E9, 0.0, 2023-03-01 13:55:55.417
118.0, 11228.13060619004, 14898.108231795817, 0.0, 0.0, 0.0, 0.0, 0.0, 0.0, -0.308, -0.8280000000000001, 0.522, 192.0, 0.0, 0.0, 0.0, 0.0, 0.0, 0.0, 0.0, 0.0, 0.0, 1.677707755417326E9, 0.0, 2023-03-01 13:55:55.417
119.0, 11222.095635187106, 14893.034385804462, 0.0, 0.0, 0.0, 0.0, 0.0, 0.0, -0.304, -0.8300000000000001, 0.52, 192.0, 246.0, 128.0, 230.0, 16.0, 16.0, 64.0, 0.0, 0.0, 0.0, 1.677707755425239E9, 0.0, 2023-03-01 13:55:55.425
120.0, 11231.282202158238, 14900.298702752436, 0.0, 0.0, 0.0, 0.0, 0.0, 0.0, -0.304, -0.8300000000000001, 0.52, 192.0, 0.0, 0.0, 0.0, 0.0, 0.0, 0.0, 0.0, 0.0, 0.0, 1.677707755425255E9, 0.0, 2023-03-01 13:55:55.425
121.0, 11225.090768944117, 14896.945941084141, 0.0, 0.0, 0.0, 0.0, 0.0, 0.0, -0.304, -0.8300000000000001, 0.52, 192.0, 0.0, 0.0, 0.0, 0.0, 0.0, 0.0, 0.0, 0.0, 0.0, 1.677707755433424E9, 0.0, 2023-03-01 13:55:55.433
122.0, 11221.648600298, 14895.649539905733, 0.0, 0.0, 0.0, 0.0, 0.0, 0.0, -0.304, -0.8300000000000001, 0.52, 192.0, 0.0, 0.0, 0.0, 0.0, 0.0, 0.0, 0.0, 0.0, 0.0, 1.677707755433443E9, 0.0, 2023-03-01 13:55:55.433
123.0, 11222.721484031856, 14896.5659614284, 0.0, 0.0, 0.0, 0.0, 0.0, 0.0, -0.304, -0.8300000000000001, 0.52, 192.0, 0.0, 0.0, 0.0, 0.0, 0.0, 0.0, 0.0, 0.0, 0.0, 1.677707755441972E9, 0.0, 2023-03-01 13:55:55.441
124.0, 11226.923611989452, 14896.856534106319, 0.0, 0.0, 0.0, 0.0, 0.0, 0.0, -0.304, -0.8300000000000001, 0.52, 192.0, 0.0, 0.0, 0.0, 0.0, 0.0, 0.0, 0.0, 0.0, 0.0, 1.677707755441987E9, 0.0, 2023-03-01 13:55:55.441
125.0, 11222.967353220864, 14896.454202706123, 0.0, 0.0, 0.0, 0.0, 0.0, 0.0, -0.304, -0.8300000000000001, 0.52, 192.0, 0.0, 0.0, 0.0, 0.0, 0.0, 0.0, 0.0, 0.0, 0.0, 1.677707755448176E9, 0.0, 2023-03-01 13:55:55.448
126.0, 11217.513527573768, 14891.916798581697, 0.0, 0.0, 0.0, 0.0, 0.0, 0.0, -0.304, -0.8300000000000001, 0.52, 192.0, 0.0, 0.0, 0.0, 0.0, 0.0, 0.0, 0.0, 0.0, 0.0, 1.677707755454994E9, 0.0, 2023-03-01 13:55:55.454
127.0, 11216.395940351003, 14894.71076663861, 0.0, 0.0, 0.0, 0.0, 0.0, 0.0, -0.304, -0.8300000000000001, 0.52, 192.0, 0.0, 0.0, 0.0, 0.0, 0.0, 0.0, 0.0, 0.0, 0.0, 1.677707755455006E9, 0.0, 2023-03-01 13:55:55.455
128.0, 11222.140338676018, 14898.175287029182, 0.0, 0.0, 0.0, 0.0, 0.0, 0.0, -0.304, -0.8300000000000001, 0.52, 192.0, 0.0, 0.0, 0.0, 0.0, 0.0, 0.0, 0.0, 0.0, 0.0, 1.677707755463104E9, 0.0, 2023-03-01 13:55:55.463
129.0, 11226.253059655794, 14897.32592073988, 0.0, 0.0, 0.0, 0.0, 0.0, 0.0, -0.304, -0.8320000000000001, 0.52, 192.0, 246.0, 128.0, 230.0, 0.0, 16.0, 64.0, 0.0, 0.0, 0.0, 1.677707755463122E9, 0.0, 2023-03-01 13:55:55.463
130.0, 11218.36289386307, 14893.32495848238, 0.0, 0.0, 0.0, 0.0, 0.0, 0.0, -0.304, -0.8320000000000001, 0.52, 192.0, 0.0, 0.0, 0.0, 0.0, 0.0, 0.0, 0.0, 0.0, 0.0, 1.677707755470221E9, 0.0, 2023-03-01 13:55:55.470
131.0, 11215.747739761799, 14893.794345115943, 0.0, 0.0, 0.0, 0.0, 0.0, 0.0, -0.304, -0.8320000000000001, 0.52, 192.0, 0.0, 0.0, 0.0, 0.0, 0.0, 0.0, 0.0, 0.0, 0.0, 1.677707755470241E9, 0.0, 2023-03-01 13:55:55.470
132.0, 11225.135472433029, 14899.672853907688, 0.0, 0.0, 0.0, 0.0, 0.0, 0.0, -0.304, -0.8320000000000001, 0.52, 192.0, 0.0, 0.0, 0.0, 0.0, 0.0, 0.0, 0.0, 0.0, 0.0, 1.677707755477795E9, 0.0, 2023-03-01 13:55:55.477
133.0, 11228.309420145682, 14900.18694403016, 0.0, 0.0, 0.0, 0.0, 0.0, 0.0, -0.304, -0.8320000000000001, 0.52, 192.0, 0.0, 0.0, 0.0, 0.0, 0.0, 0.0, 0.0, 0.0, 0.0, 1.677707755477817E9, 0.0, 2023-03-01 13:55:55.477
134.0, 11225.314286388671, 14899.874019607785, 0.0, 0.0, 0.0, 0.0, 0.0, 0.0, -0.304, -0.8320000000000001, 0.52, 192.0, 0.0, 0.0, 0.0, 0.0, 0.0, 0.0, 0.0, 0.0, 0.0, 1.677707755485708E9, 0.0, 2023-03-01 13:55:55.485
135.0, 11222.922649731952, 14899.762260885509, 0.0, 0.0, 0.0, 0.0, 0.0, 0.0, -0.304, -0.8320000000000001, 0.52, 192.0, 0.0, 0.0, 0.0, 0.0, 0.0, 0.0, 0.0, 0.0, 0.0, 1.67770775548572E9, 0.0, 2023-03-01 13:55:55.485
136.0, 11224.956658477386, 14898.532914940468, 0.0, 0.0, 0.0, 0.0, 0.0, 0.0, -0.304, -0.8320000000000001, 0.52, 192.0, 0.0, 0.0, 0.0, 0.0, 0.0, 0.0, 0.0, 0.0, 0.0, 1.677707755494134E9, 0.0, 2023-03-01 13:55:55.494
137.0, 11229.762283535276, 14901.460993464112, 0.0, 0.0, 0.0, 0.0, 0.0, 0.0, -0.304, -0.8320000000000001, 0.52, 192.0, 0.0, 0.0, 0.0, 0.0, 0.0, 0.0, 0.0, 0.0, 0.0, 1.677707755494149E9, 0.0, 2023-03-01 13:55:55.494
138.0, 11225.627210811044, 14898.644673662744, 0.0, 0.0, 0.0, 0.0, 0.0, 0.0, -0.304, -0.8320000000000001, 0.52, 192.0, 0.0, 0.0, 0.0, 0.0, 0.0, 0.0, 0.0, 0.0, 0.0, 1.677707755500507E9, 0.0, 2023-03-01 13:55:55.500
139.0, 11225.403693366492, 14898.085880051362, 0.0, 0.0, 0.0, 0.0, 0.0, 0.0, -0.304, -0.8320000000000001, 0.52, 192.0, 0.0, 0.0, 0.0, 0.0, 0.0, 0.0, 0.0, 0.0, 0.0, 1.677707755500518E9, 0.0, 2023-03-01 13:55:55.500
140.0, 11233.964411492874, 14904.031444076472, 0.0, 0.0, 0.0, 0.0, 0.0, 0.0, -0.302, -0.834, 0.52, 192.0, 246.0, 144.0, 229.0, 240.0, 16.0, 64.0, 0.0, 0.0, 0.0, 1.67770775550732E9, 0.0, 2023-03-01 13:55:55.507
141.0, 11238.613574339579, 14906.780708644475, 0.0, 0.0, 0.0, 0.0, 0.0, 0.0, -0.302, -0.834, 0.52, 192.0, 0.0, 0.0, 0.0, 0.0, 0.0, 0.0, 0.0, 0.0, 0.0, 1.677707755515195E9, 0.0, 2023-03-01 13:55:55.515
142.0, 11236.624269083057, 14904.23260977657, 0.0, 0.0, 0.0, 0.0, 0.0, 0.0, -0.302, -0.834, 0.52, 192.0, 0.0, 0.0, 0.0, 0.0, 0.0, 0.0, 0.0, 0.0, 0.0, 1.677707755515223E9, 0.0, 2023-03-01 13:55:55.515
143.0, 11237.205414438893, 14905.730176655075, 0.0, 0.0, 0.0, 0.0, 0.0, 0.0, -0.302, -0.834, 0.52, 192.0, 0.0, 0.0, 0.0, 0.0, 0.0, 0.0, 0.0, 0.0, 0.0, 1.677707755523298E9, 0.0, 2023-03-01 13:55:55.523
144.0, 11237.294821416715, 14905.57371444389, 0.0, 0.0, 0.0, 0.0, 0.0, 0.0, -0.302, -0.834, 0.52, 192.0, 0.0, 0.0, 0.0, 0.0, 0.0, 0.0, 0.0, 0.0, 0.0, 1.677707755523329E9, 0.0, 2023-03-01 13:55:55.523
145.0, 11246.74960932131, 14909.485269723567, 0.0, 0.0, 0.0, 0.0, 0.0, 0.0, -0.302, -0.834, 0.52, 192.0, 0.0, 0.0, 0.0, 0.0, 0.0, 0.0, 0.0, 0.0, 0.0, 1.677707755529997E9, 0.0, 2023-03-01 13:55:55.529
146.0, 11243.84388254212, 14907.339502255858, 0.0, 0.0, 0.0, 0.0, 0.0, 0.0, -0.302, -0.834, 0.52, 192.0, 0.0, 0.0, 0.0, 0.0, 0.0, 0.0, 0.0, 0.0, 0.0, 1.677707755530011E9, 0.0, 2023-03-01 13:55:55.530
147.0, 11239.082960973139, 14905.417252232703, 0.0, 0.0, 0.0, 0.0, 0.0, 0.0, -0.302, -0.834, 0.52, 192.0, 0.0, 0.0, 0.0, 0.0, 0.0, 0.0, 0.0, 0.0, 0.0, 1.67770775553792E9, 0.0, 2023-03-01 13:55:55.537
148.0, 11241.340487163126, 14905.461955721612, 0.0, 0.0, 0.0, 0.0, 0.0, 0.0, -0.302, -0.834, 0.52, 192.0, 0.0, 0.0, 0.0, 0.0, 0.0, 0.0, 0.0, 0.0, 0.0, 1.677707755537932E9, 0.0, 2023-03-01 13:55:55.537
149.0, 11245.430856398447, 14902.511525453512, 0.0, 0.0, 0.0, 0.0, 0.0, 0.0, -0.302, -0.834, 0.52, 192.0, 0.0, 0.0, 0.0, 0.0, 0.0, 0.0, 0.0, 0.0, 0.0, 1.677707755547327E9, 0.0, 2023-03-01 13:55:55.547
150.0, 11239.150016206506, 14900.768089385998, 0.0, 0.0, 0.0, 0.0, 0.0, 0.0, -0.312, -0.8300000000000001, 0.52, 192.0, 246.0, 64.0, 230.0, 16.0, 16.0, 64.0, 0.0, 0.0, 0.0, 1.677707755547336E9, 0.0, 2023-03-01 13:55:55.547
151.0, 11235.976068493852, 14903.763223143009, 0.0, 0.0, 0.0, 0.0, 0.0, 0.0, -0.312, -0.8300000000000001, 0.52, 192.0, 0.0, 0.0, 0.0, 0.0, 0.0, 0.0, 0.0, 0.0, 0.0, 1.677707755553708E9, 0.0, 2023-03-01 13:55:55.553
152.0, 11233.942059748419, 14903.159726042715, 0.0, 0.0, 0.0, 0.0, 0.0, 0.0, -0.312, -0.8300000000000001, 0.52, 192.0, 0.0, 0.0, 0.0, 0.0, 0.0, 0.0, 0.0, 0.0, 0.0, 1.677707755553726E9, 0.0, 2023-03-01 13:55:55.553
153.0, 11239.775865051255, 14905.774880143987, 0.0, 0.0, 0.0, 0.0, 0.0, 0.0, -0.312, -0.8300000000000001, 0.52, 192.0, 0.0, 0.0, 0.0, 0.0, 0.0, 0.0, 0.0, 0.0, 0.0, 1.677707755560508E9, 0.0, 2023-03-01 13:55:55.560
154.0, 11240.64758308501, 14907.89829586724, 0.0, 0.0, 0.0, 0.0, 0.0, 0.0, -0.312, -0.8300000000000001, 0.52, 192.0, 0.0, 0.0, 0.0, 0.0, 0.0, 0.0, 0.0, 0.0, 0.0, 1.677707755560523E9, 0.0, 2023-03-01 13:55:55.560
155.0, 11234.567908593168, 14904.813755132409, 0.0, 0.0, 0.0, 0.0, 0.0, 0.0, -0.312, -0.8300000000000001, 0.52, 192.0, 0.0, 0.0, 0.0, 0.0, 0.0, 0.0, 0.0, 0.0, 0.0, 1.677707755567652E9, 0.0, 2023-03-01 13:55:55.567
156.0, 11235.46197837138, 14904.769051643498, 0.0, 0.0, 0.0, 0.0, 0.0, 0.0, -0.312, -0.8300000000000001, 0.52, 192.0, 0.0, 0.0, 0.0, 0.0, 0.0, 0.0, 0.0, 0.0, 0.0, 1.677707755575681E9, 0.0, 2023-03-01 13:55:55.575
157.0, 11234.992591737819, 14906.244266777549, 0.0, 0.0, 0.0, 0.0, 0.0, 0.0, -0.312, -0.8300000000000001, 0.52, 192.0, 0.0, 0.0, 0.0, 0.0, 0.0, 0.0, 0.0, 0.0, 0.0, 1.677707755575692E9, 0.0, 2023-03-01 13:55:55.575
158.0, 11238.345353406115, 14907.115984811306, 0.0, 0.0, 0.0, 0.0, 0.0, 0.0, -0.312, -0.8300000000000001, 0.52, 192.0, 0.0, 0.0, 0.0, 0.0, 0.0, 0.0, 0.0, 0.0, 0.0, 1.677707755582302E9, 0.0, 2023-03-01 13:55:55.582
159.0, 11233.472673114858, 14903.718519654098, 0.0, 0.0, 0.0, 0.0, 0.0, 0.0, -0.312, -0.8300000000000001, 0.52, 192.0, 0.0, 0.0, 0.0, 0.0, 0.0, 0.0, 0.0, 0.0, 0.0, 1.677707755582317E9, 0.0, 2023-03-01 13:55:55.582
160.0, 11229.56111783518, 14898.979949829574, 0.0, 0.0, 0.0, 0.0, 0.0, 0.0, -0.314, -0.8300000000000001, 0.516, 192.0, 246.0, 48.0, 230.0, 16.0, 16.0, 32.0, 0.0, 0.0, 0.0, 1.677707755590977E9, 0.0, 2023-03-01 13:55:55.590
161.0, 11234.500853359801, 14902.37741498678, 0.0, 0.0, 0.0, 0.0, 0.0, 0.0, -0.314, -0.8300000000000001, 0.516, 192.0, 0.0, 0.0, 0.0, 0.0, 0.0, 0.0, 0.0, 0.0, 0.0, 1.677707755590986E9, 0.0, 2023-03-01 13:55:55.590
162.0, 11234.456149870892, 14898.622321918288, 0.0, 0.0, 0.0, 0.0, 0.0, 0.0, -0.314, -0.8300000000000001, 0.516, 192.0, 0.0, 0.0, 0.0, 0.0, 0.0, 0.0, 0.0, 0.0, 0.0, 1.677707755599451E9, 0.0, 2023-03-01 13:55:55.599
163.0, 11225.448396855403, 14891.358004970314, 0.0, 0.0, 0.0, 0.0, 0.0, 0.0, -0.314, -0.8300000000000001, 0.516, 192.0, 0.0, 0.0, 0.0, 0.0, 0.0, 0.0, 0.0, 0.0, 0.0, 1.677707755599472E9, 0.0, 2023-03-01 13:55:55.599
164.0, 11217.625286296045, 14888.854609591319, 0.0, 0.0, 0.0, 0.0, 0.0, 0.0, -0.314, -0.8300000000000001, 0.516, 192.0, 0.0, 0.0, 0.0, 0.0, 0.0, 0.0, 0.0, 0.0, 0.0, 1.677707755606964E9, 0.0, 2023-03-01 13:55:55.606
165.0, 11213.110233916073, 14880.875036820775, 0.0, 0.0, 0.0, 0.0, 0.0, 0.0, -0.314, -0.8300000000000001, 0.516, 192.0, 0.0, 0.0, 0.0, 0.0, 0.0, 0.0, 0.0, 0.0, 0.0, 1.677707755606992E9, 0.0, 2023-03-01 13:55:55.606
166.0, 11220.5980683086, 14881.769106598987, 0.0, 0.0, 0.0, 0.0, 0.0, 0.0, -0.314, -0.8300000000000001, 0.516, 192.0, 0.0, 0.0, 0.0, 0.0, 0.0, 0.0, 0.0, 0.0, 0.0, 1.677707755615007E9, 0.0, 2023-03-01 13:55:55.615
167.0, 11208.5951815361, 14870.213254715592, 0.0, 0.0, 0.0, 0.0, 0.0, 0.0, -0.314, -0.8300000000000001, 0.516, 192.0, 0.0, 0.0, 0.0, 0.0, 0.0, 0.0, 0.0, 0.0, 0.0, 1.677707755615025E9, 0.0, 2023-03-01 13:55:55.615
168.0, 11204.191887878405, 14869.252129704015, 0.0, 0.0, 0.0, 0.0, 0.0, 0.0, -0.314, -0.8300000000000001, 0.516, 192.0, 0.0, 0.0, 0.0, 0.0, 0.0, 0.0, 0.0, 0.0, 0.0, 1.677707755621129E9, 0.0, 2023-03-01 13:55:55.621
169.0, 11200.056815154174, 14862.568958111879, 0.0, 0.0, 0.0, 0.0, 0.0, 0.0, -0.314, -0.8300000000000001, 0.516, 192.0, 0.0, 0.0, 0.0, 0.0, 0.0, 0.0, 0.0, 0.0, 0.0, 1.677707755621139E9, 0.0, 2023-03-01 13:55:55.621
170.0, 11190.713785971855, 14850.007277727997, 0.0, 0.0, 0.0, 0.0, 0.0, 0.0, -0.32, -0.8260000000000001, 0.52, 192.0, 246.0, 0.0, 230.0, 48.0, 16.0, 64.0, 0.0, 0.0, 0.0, 1.677707755627311E9, 0.0, 2023-03-01 13:55:55.627
171.0, 11184.008262635263, 14845.067542203373, 0.0, 0.0, 0.0, 0.0, 0.0, 0.0, -0.32, -0.8260000000000001, 0.52, 192.0, 0.0, 0.0, 0.0, 0.0, 0.0, 0.0, 0.0, 0.0, 0.0, 1.677707755635297E9, 0.0, 2023-03-01 13:55:55.635
172.0, 11165.612776948545, 14824.749806493499, 0.0, 0.0, 0.0, 0.0, 0.0, 0.0, -0.32, -0.8260000000000001, 0.52, 192.0, 0.0, 0.0, 0.0, 0.0, 0.0, 0.0, 0.0, 0.0, 0.0, 1.677707755635306E9, 0.0, 2023-03-01 13:55:55.635
173.0, 11152.40289597546, 14808.231867341026, 0.0, 0.0, 0.0, 0.0, 0.0, 0.0, -0.32, -0.8260000000000001, 0.52, 192.0, 0.0, 0.0, 0.0, 0.0, 0.0, 0.0, 0.0, 0.0, 0.0, 1.677707755643236E9, 0.0, 2023-03-01 13:55:55.643
174.0, 11146.099704039063, 14791.937445633108, 0.0, 0.0, 0.0, 0.0, 0.0, 0.0, -0.32, -0.8260000000000001, 0.52, 192.0, 0.0, 0.0, 0.0, 0.0, 0.0, 0.0, 0.0, 0.0, 0.0, 1.677707755643261E9, 0.0, 2023-03-01 13:55:55.643
175.0, 11131.749884098756, 14777.811143137355, 0.0, 0.0, 0.0, 0.0, 0.0, 0.0, -0.32, -0.8260000000000001, 0.52, 192.0, 0.0, 0.0, 0.0, 0.0, 0.0, 0.0, 0.0, 0.0, 0.0, 1.677707755650224E9, 0.0, 2023-03-01 13:55:55.650
176.0, 11125.446692162359, 14771.597358178778, 0.0, 0.0, 0.0, 0.0, 0.0, 0.0, -0.32, -0.8260000000000001, 0.52, 192.0, 0.0, 0.0, 0.0, 0.0, 0.0, 0.0, 0.0, 0.0, 0.0, 1.67770775565024E9, 0.0, 2023-03-01 13:55:55.650
177.0, 11110.918058266408, 14751.234918979993, 0.0, 0.0, 0.0, 0.0, 0.0, 0.0, -0.32, -0.8260000000000001, 0.52, 192.0, 0.0, 0.0, 0.0, 0.0, 0.0, 0.0, 0.0, 0.0, 0.0, 1.67770775565792E9, 0.0, 2023-03-01 13:55:55.657
178.0, 11098.356377882526, 14733.733503071488, 0.0, 0.0, 0.0, 0.0, 0.0, 0.0, -0.32, -0.8260000000000001, 0.52, 192.0, 0.0, 0.0, 0.0, 0.0, 0.0, 0.0, 0.0, 0.0, 0.0, 1.677707755657934E9, 0.0, 2023-03-01 13:55:55.657
179.0, 11099.272799405195, 14728.726712313499, 0.0, 0.0, 0.0, 0.0, 0.0, 0.0, -0.32, -0.8260000000000001, 0.52, 192.0, 0.0, 0.0, 0.0, 0.0, 0.0, 0.0, 0.0, 0.0, 0.0, 1.677707755665928E9, 0.0, 2023-03-01 13:55:55.665
180.0, 11095.696520292346, 14725.91039251213, 0.0, 0.0, 0.0, 0.0, 0.0, 0.0, -0.322, -0.8260000000000001, 0.522, 192.0, 245.0, 240.0, 230.0, 48.0, 16.0, 80.0, 0.0, 0.0, 0.0, 1.67770775566594E9, 0.0, 2023-03-01 13:55:55.665
181.0, 11096.367072626004, 14725.977447745498, 0.0, 0.0, 0.0, 0.0, 0.0, 0.0, -0.322, -0.8260000000000001, 0.522, 192.0, 0.0, 0.0, 0.0, 0.0, 0.0, 0.0, 0.0, 0.0, 0.0, 1.677707755673911E9, 0.0, 2023-03-01 13:55:55.673
182.0, 11095.473002847792, 14725.552764600847, 0.0, 0.0, 0.0, 0.0, 0.0, 0.0, -0.322, -0.8260000000000001, 0.522, 192.0, 0.0, 0.0, 0.0, 0.0, 0.0, 0.0, 0.0, 0.0, 0.0, 1.677707755673921E9, 0.0, 2023-03-01 13:55:55.673
183.0, 11101.060938961618, 14729.665485580623, 0.0, 0.0, 0.0, 0.0, 0.0, 0.0, -0.322, -0.8260000000000001, 0.522, 192.0, 0.0, 0.0, 0.0, 0.0, 0.0, 0.0, 0.0, 0.0, 0.0, 1.67770775568193E9, 0.0, 2023-03-01 13:55:55.681
184.0, 11110.269857677205, 14740.327267685803, 0.0, 0.0, 0.0, 0.0, 0.0, 0.0, -0.322, -0.8260000000000001, 0.522, 192.0, 0.0, 0.0, 0.0, 0.0, 0.0, 0.0, 0.0, 0.0, 0.0, 1.677707755681949E9, 0.0, 2023-03-01 13:55:55.681
185.0, 11106.134784952974, 14741.847186308765, 0.0, 0.0, 0.0, 0.0, 0.0, 0.0, -0.322, -0.8260000000000001, 0.522, 192.0, 0.0, 0.0, 0.0, 0.0, 0.0, 0.0, 0.0, 0.0, 0.0, 1.677707755688062E9, 0.0, 2023-03-01 13:55:55.688
186.0, 11116.595401358058, 14750.989049790986, 0.0, 0.0, 0.0, 0.0, 0.0, 0.0, -0.322, -0.8260000000000001, 0.522, 192.0, 0.0, 0.0, 0.0, 0.0, 0.0, 0.0, 0.0, 0.0, 0.0, 1.677707755688085E9, 0.0, 2023-03-01 13:55:55.688
187.0, 11133.023933532708, 14768.512817443947, 0.0, 0.0, 0.0, 0.0, 0.0, 0.0, -0.322, -0.8260000000000001, 0.522, 192.0, 0.0, 0.0, 0.0, 0.0, 0.0, 0.0, 0.0, 0.0, 0.0, 1.677707755697031E9, 0.0, 2023-03-01 13:55:55.697
188.0, 11143.998640060263, 14785.075460085329, 0.0, 0.0, 0.0, 0.0, 0.0, 0.0, -0.322, -0.8260000000000001, 0.522, 192.0, 0.0, 0.0, 0.0, 0.0, 0.0, 0.0, 0.0, 0.0, 0.0, 1.677707755703403E9, 0.0, 2023-03-01 13:55:55.703
189.0, 11146.457331950347, 14790.953968877075, 0.0, 0.0, 0.0, 0.0, 0.0, 0.0, -0.322, -0.8260000000000001, 0.522, 192.0, 0.0, 0.0, 0.0, 0.0, 0.0, 0.0, 0.0, 0.0, 0.0, 1.677707755703416E9, 0.0, 2023-03-01 13:55:55.703
190.0, 11161.991794346786, 14807.941294663107, 0.0, 0.0, 0.0, 0.0, 0.0, 0.0, -0.314, -0.8240000000000001, 0.522, 192.0, 246.0, 48.0, 230.0, 64.0, 16.0, 80.0, 0.0, 0.0, 0.0, 1.677707755710023E9, 0.0, 2023-03-01 13:55:55.710
191.0, 11173.279425296716, 14819.497146546502, 0.0, 0.0, 0.0, 0.0, 0.0, 0.0, -0.314, -0.8240000000000001, 0.522, 192.0, 0.0, 0.0, 0.0, 0.0, 0.0, 0.0, 0.0, 0.0, 0.0, 1.677707755710037E9, 0.0, 2023-03-01 13:55:55.710
192.0, 11180.677852711422, 14827.432015828135, 0.0, 0.0, 0.0, 0.0, 0.0, 0.0, -0.314, -0.8240000000000001, 0.522, 192.0, 0.0, 0.0, 0.0, 0.0, 0.0, 0.0, 0.0, 0.0, 0.0, 1.677707755718027E9, 0.0, 2023-03-01 13:55:55.718
193.0, 11180.990777133797, 14833.422283342157, 0.0, 0.0, 0.0, 0.0, 0.0, 0.0, -0.314, -0.8240000000000001, 0.522, 192.0, 0.0, 0.0, 0.0, 0.0, 0.0, 0.0, 0.0, 0.0, 0.0, 1.677707755718039E9, 0.0, 2023-03-01 13:55:55.718
194.0, 11186.802230692176, 14837.669114788667, 0.0, 0.0, 0.0, 0.0, 0.0, 0.0, -0.314, -0.8240000000000001, 0.522, 192.0, 0.0, 0.0, 0.0, 0.0, 0.0, 0.0, 0.0, 0.0, 0.0, 1.677707755726604E9, 0.0, 2023-03-01 13:55:55.726
195.0, 11196.189963363406, 14845.31341139238, 0.0, 0.0, 0.0, 0.0, 0.0, 0.0, -0.314, -0.8240000000000001, 0.522, 192.0, 0.0, 0.0, 0.0, 0.0, 0.0, 0.0, 0.0, 0.0, 0.0, 1.677707755726627E9, 0.0, 2023-03-01 13:55:55.726
196.0, 11196.07820464113, 14849.292021905427, 0.0, 0.0, 0.0, 0.0, 0.0, 0.0, -0.314, -0.8240000000000001, 0.522, 192.0, 0.0, 0.0, 0.0, 0.0, 0.0, 0.0, 0.0, 0.0, 0.0, 1.677707755732802E9, 0.0, 2023-03-01 13:55:55.732
197.0, 11194.558286018168, 14849.962574239085, 0.0, 0.0, 0.0, 0.0, 0.0, 0.0, -0.314, -0.8240000000000001, 0.522, 192.0, 0.0, 0.0, 0.0, 0.0, 0.0, 0.0, 0.0, 0.0, 0.0, 1.677707755732818E9, 0.0, 2023-03-01 13:55:55.732
198.0, 11199.341559331604, 14853.829426029853, 0.0, 0.0, 0.0, 0.0, 0.0, 0.0, -0.314, -0.8240000000000001, 0.522, 192.0, 0.0, 0.0, 0.0, 0.0, 0.0, 0.0, 0.0, 0.0, 0.0, 1.677707755740775E9, 0.0, 2023-03-01 13:55:55.740
199.0, 11200.816774465655, 14853.695315563122, 0.0, 0.0, 0.0, 0.0, 0.0, 0.0, -0.314, -0.8240000000000001, 0.522, 192.0, 0.0, 0.0, 0.0, 0.0, 0.0, 0.0, 0.0, 0.0, 0.0, 1.677707755740794E9, 0.0, 2023-03-01 13:55:55.740
200.0, 11198.849820953586, 14856.623394086766, 0.0, 0.0, 0.0, 0.0, 0.0, 0.0, -0.314, -0.8300000000000001, 0.518, 192.0, 246.0, 48.0, 230.0, 16.0, 16.0, 48.0, 0.0, 0.0, 0.0, 1.677707755748755E9, 0.0, 2023-03-01 13:55:55.748
201.0, 11199.810945965166, 14859.730286566055, 0.0, 0.0, 0.0, 0.0, 0.0, 0.0, -0.314, -0.8300000000000001, 0.518, 192.0, 0.0, 0.0, 0.0, 0.0, 0.0, 0.0, 0.0, 0.0, 0.0, 1.67770775574877E9, 0.0, 2023-03-01 13:55:55.748
202.0, 11201.084995399118, 14859.886748777242, 0.0, 0.0, 0.0, 0.0, 0.0, 0.0, -0.314, -0.8300000000000001, 0.518, 192.0, 0.0, 0.0, 0.0, 0.0, 0.0, 0.0, 0.0, 0.0, 0.0, 1.677707755755889E9, 0.0, 2023-03-01 13:55:55.755
203.0, 11206.36000709057, 14861.98781275604, 0.0, 0.0, 0.0, 0.0, 0.0, 0.0, -0.314, -0.8300000000000001, 0.518, 192.0, 0.0, 0.0, 0.0, 0.0, 0.0, 0.0, 0.0, 0.0, 0.0, 1.67770775576233E9, 0.0, 2023-03-01 13:55:55.762
204.0, 11213.512565316269, 14866.301699435915, 0.0, 0.0, 0.0, 0.0, 0.0, 0.0, -0.314, -0.8300000000000001, 0.518, 192.0, 0.0, 0.0, 0.0, 0.0, 0.0, 0.0, 0.0, 0.0, 0.0, 1.677707755762342E9, 0.0, 2023-03-01 13:55:55.762
205.0, 11207.119966402051, 14862.479551134056, 0.0, 0.0, 0.0, 0.0, 0.0, 0.0, -0.314, -0.8300000000000001, 0.518, 192.0, 0.0, 0.0, 0.0, 0.0, 0.0, 0.0, 0.0, 0.0, 0.0, 1.677707755770321E9, 0.0, 2023-03-01 13:55:55.770
206.0, 11209.6457135255, 14865.340574424336, 0.0, 0.0, 0.0, 0.0, 0.0, 0.0, -0.314, -0.8300000000000001, 0.518, 192.0, 0.0, 0.0, 0.0, 0.0, 0.0, 0.0, 0.0, 0.0, 0.0, 1.677707755770342E9, 0.0, 2023-03-01 13:55:55.770
207.0, 11212.640847282511, 14872.984871028051, 0.0, 0.0, 0.0, 0.0, 0.0, 0.0, -0.314, -0.8300000000000001, 0.518, 192.0, 0.0, 0.0, 0.0, 0.0, 0.0, 0.0, 0.0, 0.0, 0.0, 1.677707755778311E9, 0.0, 2023-03-01 13:55:55.778
208.0, 11213.26669612726, 14873.923644295175, 0.0, 0.0, 0.0, 0.0, 0.0, 0.0, -0.314, -0.8300000000000001, 0.518, 192.0, 0.0, 0.0, 0.0, 0.0, 0.0, 0.0, 0.0, 0.0, 0.0, 1.677707755778357E9, 0.0, 2023-03-01 13:55:55.778
209.0, 11208.572829791645, 14868.089838992339, 0.0, 0.0, 0.0, 0.0, 0.0, 0.0, -0.314, -0.8300000000000001, 0.518, 192.0, 0.0, 0.0, 0.0, 0.0, 0.0, 0.0, 0.0, 0.0, 0.0, 1.677707755785538E9, 0.0, 2023-03-01 13:55:55.785
210.0, 11209.690417014412, 14869.542702381934, 0.0, 0.0, 0.0, 0.0, 0.0, 0.0, -0.322, -0.836, 0.516, 192.0, 245.0, 240.0, 229.0, 224.0, 16.0, 32.0, 0.0, 0.0, 0.0, 1.67770775578556E9, 0.0, 2023-03-01 13:55:55.785
211.0, 11217.066492684662, 14876.583501885356, 0.0, 0.0, 0.0, 0.0, 0.0, 0.0, -0.322, -0.836, 0.516, 192.0, 0.0, 0.0, 0.0, 0.0, 0.0, 0.0, 0.0, 0.0, 0.0, 1.67770775579305E9, 0.0, 2023-03-01 13:55:55.793
212.0, 11219.771053763754, 14876.337632696348, 0.0, 0.0, 0.0, 0.0, 0.0, 0.0, -0.322, -0.836, 0.516, 192.0, 0.0, 0.0, 0.0, 0.0, 0.0, 0.0, 0.0, 0.0, 0.0, 1.677707755793061E9, 0.0, 2023-03-01 13:55:55.793
213.0, 11219.212260152372, 14871.822580316375, 0.0, 0.0, 0.0, 0.0, 0.0, 0.0, -0.322, -0.836, 0.516, 192.0, 0.0, 0.0, 0.0, 0.0, 0.0, 0.0, 0.0, 0.0, 0.0, 1.6777077558011E9, 0.0, 2023-03-01 13:55:55.801
214.0, 11216.865326984564, 14872.247263461026, 0.0, 0.0, 0.0, 0.0, 0.0, 0.0, -0.322, -0.836, 0.516, 192.0, 0.0, 0.0, 0.0, 0.0, 0.0, 0.0, 0.0, 0.0, 0.0, 1.677707755801116E9, 0.0, 2023-03-01 13:55:55.801
215.0, 11220.21808865286, 14872.828408816864, 0.0, 0.0, 0.0, 0.0, 0.0, 0.0, -0.322, -0.836, 0.516, 192.0, 0.0, 0.0, 0.0, 0.0, 0.0, 0.0, 0.0, 0.0, 0.0, 1.677707755808959E9, 0.0, 2023-03-01 13:55:55.808
216.0, 11225.627210811044, 14874.437734417646, 0.0, 0.0, 0.0, 0.0, 0.0, 0.0, -0.322, -0.836, 0.516, 192.0, 0.0, 0.0, 0.0, 0.0, 0.0, 0.0, 0.0, 0.0, 0.0, 1.677707755808967E9, 0.0, 2023-03-01 13:55:55.808
217.0, 11223.257925898783, 14872.247263461026, 0.0, 0.0, 0.0, 0.0, 0.0, 0.0, -0.322, -0.836, 0.516, 192.0, 0.0, 0.0, 0.0, 0.0, 0.0, 0.0, 0.0, 0.0, 0.0, 1.677707755815312E9, 0.0, 2023-03-01 13:55:55.815
218.0, 11219.860460741576, 14875.398859429224, 0.0, 0.0, 0.0, 0.0, 0.0, 0.0, -0.322, -0.836, 0.516, 192.0, 0.0, 0.0, 0.0, 0.0, 0.0, 0.0, 0.0, 0.0, 0.0, 1.677707755822718E9, 0.0, 2023-03-01 13:55:55.822
219.0, 11222.520318331757, 14882.573769399378, 0.0, 0.0, 0.0, 0.0, 0.0, 0.0, -0.322, -0.836, 0.516, 192.0, 0.0, 0.0, 0.0, 0.0, 0.0, 0.0, 0.0, 0.0, 0.0, 1.677707755822744E9, 0.0, 2023-03-01 13:55:55.822
220.0, 11227.147129434006, 14886.910007823708, 0.0, 0.0, 0.0, 0.0, 0.0, 0.0, -0.322, -0.836, 0.516, 192.0, 0.0, 0.0, 0.0, 0.0, 0.0, 0.0, 0.0, 0.0, 0.0, 1.677707755831244E9, 0.0, 2023-03-01 13:55:55.831
221.0, 11231.93040274744, 14889.793382858443, 0.0, 0.0, 0.0, 0.0, 0.0, 0.0, -0.322, -0.8320000000000001, 0.526, 192.0, 245.0, 240.0, 230.0, 0.0, 16.0, 112.0, 0.0, 0.0, 0.0, 1.67770775583126E9, 0.0, 2023-03-01 13:55:55.831
222.0, 11225.247231155305, 14886.641786890244, 0.0, 0.0, 0.0, 0.0, 0.0, 0.0, -0.322, -0.8320000000000001, 0.526, 192.0, 0.0, 0.0, 0.0, 0.0, 0.0, 0.0, 0.0, 0.0, 0.0, 1.677707755840255E9, 0.0, 2023-03-01 13:55:55.840
223.0, 11223.101463687595, 14884.428964189168, 0.0, 0.0, 0.0, 0.0, 0.0, 0.0, -0.322, -0.8320000000000001, 0.526, 192.0, 0.0, 0.0, 0.0, 0.0, 0.0, 0.0, 0.0, 0.0, 0.0, 1.677707755840272E9, 0.0, 2023-03-01 13:55:55.840
224.0, 11233.98676323733, 14890.03925204745, 0.0, 0.0, 0.0, 0.0, 0.0, 0.0, -0.322, -0.8320000000000001, 0.526, 192.0, 0.0, 0.0, 0.0, 0.0, 0.0, 0.0, 0.0, 0.0, 0.0, 1.677707755846552E9, 0.0, 2023-03-01 13:55:55.846
225.0, 11231.170443435962, 14888.18405725766, 0.0, 0.0, 0.0, 0.0, 0.0, 0.0, -0.322, -0.8320000000000001, 0.526, 192.0, 0.0, 0.0, 0.0, 0.0, 0.0, 0.0, 0.0, 0.0, 0.0, 1.677707755846566E9, 0.0, 2023-03-01 13:55:55.846
226.0, 11225.850728255598, 14883.870170577786, 0.0, 0.0, 0.0, 0.0, 0.0, 0.0, -0.322, -0.8320000000000001, 0.526, 192.0, 0.0, 0.0, 0.0, 0.0, 0.0, 0.0, 0.0, 0.0, 0.0, 1.677707755853193E9, 0.0, 2023-03-01 13:55:55.853
227.0, 11226.297763144705, 14886.32886246787, 0.0, 0.0, 0.0, 0.0, 0.0, 0.0, -0.322, -0.8320000000000001, 0.526, 192.0, 0.0, 0.0, 0.0, 0.0, 0.0, 0.0, 0.0, 0.0, 0.0, 1.677707755853202E9, 0.0, 2023-03-01 13:55:55.853
228.0, 11231.93040274744, 14894.6660631497, 0.0, 0.0, 0.0, 0.0, 0.0, 0.0, -0.322, -0.8320000000000001, 0.526, 192.0, 0.0, 0.0, 0.0, 0.0, 0.0, 0.0, 0.0, 0.0, 0.0, 1.677707755861411E9, 0.0, 2023-03-01 13:55:55.861
229.0, 11231.639830069522, 14890.910970081208, 0.0, 0.0, 0.0, 0.0, 0.0, 0.0, -0.322, -0.8320000000000001, 0.526, 192.0, 0.0, 0.0, 0.0, 0.0, 0.0, 0.0, 0.0, 0.0, 0.0, 1.677707755861442E9, 0.0, 2023-03-01 13:55:55.861
230.0, 11228.309420145682, 14888.742850869043, 0.0, 0.0, 0.0, 0.0, 0.0, 0.0, -0.322, -0.8320000000000001, 0.526, 192.0, 0.0, 0.0, 0.0, 0.0, 0.0, 0.0, 0.0, 0.0, 0.0, 1.677707755868469E9, 0.0, 2023-03-01 13:55:55.868
231.0, 11225.56015557768, 14887.580560157367, 0.0, 0.0, 0.0, 0.0, 0.0, 0.0, -0.316, -0.8180000000000001, 0.526, 192.0, 246.0, 32.0, 230.0, 112.0, 16.0, 112.0, 0.0, 0.0, 0.0, 1.677707755868483E9, 0.0, 2023-03-01 13:55:55.868
232.0, 11229.382303879536, 14888.452278191124, 0.0, 0.0, 0.0, 0.0, 0.0, 0.0, -0.316, -0.8180000000000001, 0.526, 192.0, 0.0, 0.0, 0.0, 0.0, 0.0, 0.0, 0.0, 0.0, 0.0, 1.677707755874941E9, 0.0, 2023-03-01 13:55:55.874
233.0, 11228.041199212217, 14887.066470034895, 0.0, 0.0, 0.0, 0.0, 0.0, 0.0, -0.316, -0.8180000000000001, 0.526, 192.0, 0.0, 0.0, 0.0, 0.0, 0.0, 0.0, 0.0, 0.0, 0.0, 1.677707755882967E9, 0.0, 2023-03-01 13:55:55.882
234.0, 11225.247231155305, 14884.920702567186, 0.0, 0.0, 0.0, 0.0, 0.0, 0.0, -0.316, -0.8180000000000001, 0.526, 192.0, 0.0, 0.0, 0.0, 0.0, 0.0, 0.0, 0.0, 0.0, 0.0, 1.677707755883009E9, 0.0, 2023-03-01 13:55:55.883
235.0, 11223.570850321157, 14884.831295589363, 0.0, 0.0, 0.0, 0.0, 0.0, 0.0, -0.316, -0.8180000000000001, 0.526, 192.0, 0.0, 0.0, 0.0, 0.0, 0.0, 0.0, 0.0, 0.0, 0.0, 1.677707755890955E9, 0.0, 2023-03-01 13:55:55.890
236.0, 11226.923611989452, 14890.575693914378, 0.0, 0.0, 0.0, 0.0, 0.0, 0.0, -0.316, -0.8180000000000001, 0.526, 192.0, 0.0, 0.0, 0.0, 0.0, 0.0, 0.0, 0.0, 0.0, 0.0, 1.677707755890968E9, 0.0, 2023-03-01 13:55:55.890
237.0, 11230.499891102301, 14890.173362514182, 0.0, 0.0, 0.0, 0.0, 0.0, 0.0, -0.316, -0.8180000000000001, 0.526, 192.0, 0.0, 0.0, 0.0, 0.0, 0.0, 0.0, 0.0, 0.0, 0.0, 1.67770775589803E9, 0.0, 2023-03-01 13:55:55.898
238.0, 11228.957620734885, 14890.352176469825, 0.0, 0.0, 0.0, 0.0, 0.0, 0.0, -0.316, -0.8180000000000001, 0.526, 192.0, 0.0, 0.0, 0.0, 0.0, 0.0, 0.0, 0.0, 0.0, 0.0, 1.677707755898039E9, 0.0, 2023-03-01 13:55:55.898
239.0, 11227.79533002321, 14888.698147380132, 0.0, 0.0, 0.0, 0.0, 0.0, 0.0, -0.316, -0.8180000000000001, 0.526, 192.0, 0.0, 0.0, 0.0, 0.0, 0.0, 0.0, 0.0, 0.0, 0.0, 1.677707755905574E9, 0.0, 2023-03-01 13:55:55.905
240.0, 11229.874042257554, 14889.346347969336, 0.0, 0.0, 0.0, 0.0, 0.0, 0.0, -0.316, -0.8180000000000001, 0.526, 192.0, 0.0, 0.0, 0.0, 0.0, 0.0, 0.0, 0.0, 0.0, 0.0, 1.677707755905598E9, 0.0, 2023-03-01 13:55:55.905
241.0, 11233.919708003963, 14892.52029568199, 0.0, 0.0, 0.0, 0.0, 0.0, 0.0, -0.324, -0.8200000000000001, 0.524, 192.0, 245.0, 224.0, 230.0, 96.0, 16.0, 96.0, 0.0, 0.0, 0.0, 1.67770775591359E9, 0.0, 2023-03-01 13:55:55.913
242.0, 11230.432835868936, 14892.162667770705, 0.0, 0.0, 0.0, 0.0, 0.0, 0.0, -0.324, -0.8200000000000001, 0.524, 192.0, 0.0, 0.0, 0.0, 0.0, 0.0, 0.0, 0.0, 0.0, 0.0, 1.677707755913611E9, 0.0, 2023-03-01 13:55:55.913
243.0, 11225.403693366492, 14889.838086347352, 0.0, 0.0, 0.0, 0.0, 0.0, 0.0, -0.324, -0.8200000000000001, 0.524, 192.0, 0.0, 0.0, 0.0, 0.0, 0.0, 0.0, 0.0, 0.0, 0.0, 1.6777077559206E9, 0.0, 2023-03-01 13:55:55.920
244.0, 11225.113120688573, 14894.151973027227, 0.0, 0.0, 0.0, 0.0, 0.0, 0.0, -0.324, -0.8200000000000001, 0.524, 192.0, 0.0, 0.0, 0.0, 0.0, 0.0, 0.0, 0.0, 0.0, 0.0, 1.677707755920616E9, 0.0, 2023-03-01 13:55:55.920
245.0, 11225.962486977875, 14894.733118383065, 0.0, 0.0, 0.0, 0.0, 0.0, 0.0, -0.324, -0.8200000000000001, 0.524, 192.0, 0.0, 0.0, 0.0, 0.0, 0.0, 0.0, 0.0, 0.0, 0.0, 1.677707755928238E9, 0.0, 2023-03-01 13:55:55.928
246.0, 11224.755492777287, 14891.916798581697, 0.0, 0.0, 0.0, 0.0, 0.0, 0.0, -0.324, -0.8200000000000001, 0.524, 192.0, 0.0, 0.0, 0.0, 0.0, 0.0, 0.0, 0.0, 0.0, 0.0, 1.677707755928252E9, 0.0, 2023-03-01 13:55:55.928
247.0, 11219.703998530389, 14891.156839270216, 0.0, 0.0, 0.0, 0.0, 0.0, 0.0, -0.324, -0.8200000000000001, 0.524, 192.0, 0.0, 0.0, 0.0, 0.0, 0.0, 0.0, 0.0, 0.0, 0.0, 1.677707755935298E9, 0.0, 2023-03-01 13:55:55.935
248.0, 11216.865326984564, 14890.37452821428, 0.0, 0.0, 0.0, 0.0, 0.0, 0.0, -0.324, -0.8200000000000001, 0.524, 192.0, 0.0, 0.0, 0.0, 0.0, 0.0, 0.0, 0.0, 0.0, 0.0, 1.677707755935311E9, 0.0, 2023-03-01 13:55:55.935
249.0, 11226.588335822624, 14893.168496271193, 0.0, 0.0, 0.0, 0.0, 0.0, 0.0, -0.324, -0.8200000000000001, 0.524, 192.0, 0.0, 0.0, 0.0, 0.0, 0.0, 0.0, 0.0, 0.0, 0.0, 1.67770775594326E9, 0.0, 2023-03-01 13:55:55.943
250.0, 11230.388132380025, 14897.750603884531, 0.0, 0.0, 0.0, 0.0, 0.0, 0.0, -0.324, -0.8200000000000001, 0.524, 192.0, 0.0, 0.0, 0.0, 0.0, 0.0, 0.0, 0.0, 0.0, 0.0, 1.677707755950345E9, 0.0, 2023-03-01 13:55:55.950
251.0, 11225.738969533322, 14898.242342262549, 0.0, 0.0, 0.0, 0.0, 0.0, 0.0, -0.32, -0.8280000000000001, 0.516, 192.0, 246.0, 0.0, 230.0, 32.0, 16.0, 32.0, 0.0, 0.0, 0.0, 1.67770775595043E9, 0.0, 2023-03-01 13:55:55.950
252.0, 11226.543632333713, 14899.315225996403, 0.0, 0.0, 0.0, 0.0, 0.0, 0.0, -0.32, -0.8280000000000001, 0.516, 192.0, 0.0, 0.0, 0.0, 0.0, 0.0, 0.0, 0.0, 0.0, 0.0, 1.677707755957692E9, 0.0, 2023-03-01 13:55:55.957
253.0, 11234.165577192973, 14902.533877197968, 0.0, 0.0, 0.0, 0.0, 0.0, 0.0, -0.32, -0.8280000000000001, 0.516, 192.0, 0.0, 0.0, 0.0, 0.0, 0.0, 0.0, 0.0, 0.0, 0.0, 1.677707755957708E9, 0.0, 2023-03-01 13:55:55.957
254.0, 11240.021734240263, 14908.501792967534, 0.0, 0.0, 0.0, 0.0, 0.0, 0.0, -0.32, -0.8280000000000001, 0.516, 192.0, 0.0, 0.0, 0.0, 0.0, 0.0, 0.0, 0.0, 0.0, 0.0, 1.677707755965926E9, 0.0, 2023-03-01 13:55:55.965
255.0, 11233.159748692484, 14905.23843827706, 0.0, 0.0, 0.0, 0.0, 0.0, 0.0, -0.32, -0.8280000000000001, 0.516, 192.0, 0.0, 0.0, 0.0, 0.0, 0.0, 0.0, 0.0, 0.0, 0.0, 1.677707755965944E9, 0.0, 2023-03-01 13:55:55.965
0.0, 11231.349257391603, 14904.076147565384, 0.0, 0.0, 0.0, 0.0, 0.0, 0.0, -0.32, -0.8280000000000001, 0.516, 192.0, 0.0, 0.0, 0.0, 0.0, 0.0, 0.0, 0.0, 0.0, 0.0, 1.677707755975258E9, 0.0, 2023-03-01 13:55:55.975
1.0, 11237.98772549483, 14908.367682500802, 0.0, 0.0, 0.0, 0.0, 0.0, 0.0, -0.32, -0.8280000000000001, 0.516, 192.0, 0.0, 0.0, 0.0, 0.0, 0.0, 0.0, 0.0, 0.0, 0.0, 1.677707755975273E9, 0.0, 2023-03-01 13:55:55.975
2.0, 11242.03339124124, 14906.6689499222, 0.0, 0.0, 0.0, 0.0, 0.0, 0.0, -0.32, -0.8280000000000001, 0.516, 192.0, 0.0, 0.0, 0.0, 0.0, 0.0, 0.0, 0.0, 0.0, 0.0, 1.677707755981461E9, 0.0, 2023-03-01 13:55:55.981
3.0, 11235.484330115834, 14903.293836509447, 0.0, 0.0, 0.0, 0.0, 0.0, 0.0, -0.32, -0.8280000000000001, 0.516, 192.0, 0.0, 0.0, 0.0, 0.0, 0.0, 0.0, 0.0, 0.0, 0.0, 1.677707755981471E9, 0.0, 2023-03-01 13:55:55.981
4.0, 11232.93623124793, 14900.969255086096, 0.0, 0.0, 0.0, 0.0, 0.0, 0.0, -0.32, -0.8280000000000001, 0.516, 192.0, 0.0, 0.0, 0.0, 0.0, 0.0, 0.0, 0.0, 0.0, 0.0, 1.677707755988391E9, 0.0, 2023-03-01 13:55:55.988
5.0, 11236.087827216128, 14906.579542944377, 0.0, 0.0, 0.0, 0.0, 0.0, 0.0, -0.32, -0.8320000000000001, 0.518, 192.0, 246.0, 0.0, 230.0, 0.0, 16.0, 48.0, 0.0, 0.0, 0.0, 1.677707755988405E9, 0.0, 2023-03-01 13:55:55.988
6.0, 11239.41823713997, 14907.071281322394, 0.0, 0.0, 0.0, 0.0, 0.0, 0.0, -0.32, -0.8320000000000001, 0.518, 192.0, 0.0, 0.0, 0.0, 0.0, 0.0, 0.0, 0.0, 0.0, 0.0, 1.677707755996478E9, 0.0, 2023-03-01 13:55:55.996
7.0, 11241.31813541867, 14908.5688482009, 0.0, 0.0, 0.0, 0.0, 0.0, 0.0, -0.32, -0.8320000000000001, 0.518, 192.0, 0.0, 0.0, 0.0, 0.0, 0.0, 0.0, 0.0, 0.0, 0.0, 1.677707755996495E9, 0.0, 2023-03-01 13:55:55.996
8.0, 11238.635926084033, 14904.992569088052, 0.0, 0.0, 0.0, 0.0, 0.0, 0.0, -0.32, -0.8320000000000001, 0.518, 192.0, 0.0, 0.0, 0.0, 0.0, 0.0, 0.0, 0.0, 0.0, 0.0, 1.677707756003523E9, 0.0, 2023-03-01 13:55:56.003
9.0, 11240.401713896003, 14906.557191199923, 0.0, 0.0, 0.0, 0.0, 0.0, 0.0, -0.32, -0.8320000000000001, 0.518, 192.0, 0.0, 0.0, 0.0, 0.0, 0.0, 0.0, 0.0, 0.0, 0.0, 1.677707756010099E9, 0.0, 2023-03-01 13:55:56.010
10.0, 11247.84484479962, 14913.106252325328, 0.0, 0.0, 0.0, 0.0, 0.0, 0.0, -0.32, -0.8320000000000001, 0.518, 192.0, 0.0, 0.0, 0.0, 0.0, 0.0, 0.0, 0.0, 0.0, 0.0, 1.677707756010114E9, 0.0, 2023-03-01 13:55:56.010
11.0, 11246.481388387847, 14914.38030175928, 0.0, 0.0, 0.0, 0.0, 0.0, 0.0, -0.32, -0.8320000000000001, 0.518, 192.0, 0.0, 0.0, 0.0, 0.0, 0.0, 0.0, 0.0, 0.0, 0.0, 1.677707756018092E9, 0.0, 2023-03-01 13:55:56.018
12.0, 11241.720466818866, 14915.386130259769, 0.0, 0.0, 0.0, 0.0, 0.0, 0.0, -0.32, -0.8320000000000001, 0.518, 192.0, 0.0, 0.0, 0.0, 0.0, 0.0, 0.0, 0.0, 0.0, 0.0, 1.677707756018142E9, 0.0, 2023-03-01 13:55:56.018
13.0, 11247.353106421604, 14920.996418118051, 0.0, 0.0, 0.0, 0.0, 0.0, 0.0, -0.32, -0.8320000000000001, 0.518, 192.0, 0.0, 0.0, 0.0, 0.0, 0.0, 0.0, 0.0, 0.0, 0.0, 1.677707756026117E9, 0.0, 2023-03-01 13:55:56.026
14.0, 11252.762228579788, 14922.248115807548, 0.0, 0.0, 0.0, 0.0, 0.0, 0.0, -0.32, -0.8320000000000001, 0.518, 192.0, 0.0, 0.0, 0.0, 0.0, 0.0, 0.0, 0.0, 0.0, 0.0, 1.677707756026128E9, 0.0, 2023-03-01 13:55:56.026
15.0, 11253.589243124634, 14921.085825095872, 0.0, 0.0, 0.0, 0.0, 0.0, 0.0, -0.32, -0.834, 0.52, 192.0, 246.0, 0.0, 229.0, 240.0, 16.0, 64.0, 0.0, 0.0, 0.0, 1.67770775603323E9, 0.0, 2023-03-01 13:55:56.033
16.0, 11249.789446567233, 14919.565906472912, 0.0, 0.0, 0.0, 0.0, 0.0, 0.0, -0.32, -0.834, 0.52, 192.0, 0.0, 0.0, 0.0, 0.0, 0.0, 0.0, 0.0, 0.0, 0.0, 1.677707756033261E9, 0.0, 2023-03-01 13:55:56.033
17.0, 11254.237443713839, 14921.085825095872, 0.0, 0.0, 0.0, 0.0, 0.0, 0.0, -0.32, -0.834, 0.52, 192.0, 0.0, 0.0, 0.0, 0.0, 0.0, 0.0, 0.0, 0.0, 0.0, 1.677707756040718E9, 0.0, 2023-03-01 13:55:56.040
18.0, 11258.618385627078, 14921.66697045171, 0.0, 0.0, 0.0, 0.0, 0.0, 0.0, -0.32, -0.834, 0.52, 192.0, 0.0, 0.0, 0.0, 0.0, 0.0, 0.0, 0.0, 0.0, 0.0, 1.677707756040736E9, 0.0, 2023-03-01 13:55:56.040
19.0, 11256.405562926002, 14918.783595416975, 0.0, 0.0, 0.0, 0.0, 0.0, 0.0, -0.32, -0.834, 0.52, 192.0, 0.0, 0.0, 0.0, 0.0, 0.0, 0.0, 0.0, 0.0, 0.0, 1.67770775604875E9, 0.0, 2023-03-01 13:55:56.048
20.0, 11246.526091876756, 14912.368644758302, 0.0, 0.0, 0.0, 0.0, 0.0, 0.0, -0.32, -0.834, 0.52, 192.0, 0.0, 0.0, 0.0, 0.0, 0.0, 0.0, 0.0, 0.0, 0.0, 1.677707756048772E9, 0.0, 2023-03-01 13:55:56.048
21.0, 11242.435722641436, 14909.552324956934, 0.0, 0.0, 0.0, 0.0, 0.0, 0.0, -0.32, -0.834, 0.52, 192.0, 0.0, 0.0, 0.0, 0.0, 0.0, 0.0, 0.0, 0.0, 0.0, 1.677707756056777E9, 0.0, 2023-03-01 13:55:56.056
22.0, 11245.98965000983, 14912.703920925132, 0.0, 0.0, 0.0, 0.0, 0.0, 0.0, -0.32, -0.834, 0.52, 192.0, 0.0, 0.0, 0.0, 0.0, 0.0, 0.0, 0.0, 0.0, 0.0, 1.677707756056793E9, 0.0, 2023-03-01 13:55:56.056
23.0, 11246.950775021407, 14913.888563381262, 0.0, 0.0, 0.0, 0.0, 0.0, 0.0, -0.32, -0.834, 0.52, 192.0, 0.0, 0.0, 0.0, 0.0, 0.0, 0.0, 0.0, 0.0, 0.0, 1.677707756062881E9, 0.0, 2023-03-01 13:55:56.062
24.0, 11244.536786620234, 14915.117909326305, 0.0, 0.0, 0.0, 0.0, 0.0, 0.0, -0.32, -0.834, 0.52, 192.0, 0.0, 0.0, 0.0, 0.0, 0.0, 0.0, 0.0, 0.0, 0.0, 1.677707756070251E9, 0.0, 2023-03-01 13:55:56.070
25.0, 11244.067399986674, 14917.733063427577, 0.0, 0.0, 0.0, 0.0, 0.0, 0.0, -0.326, -0.8240000000000001, 0.518, 192.0, 245.0, 208.0, 230.0, 64.0, 16.0, 48.0, 0.0, 0.0, 0.0, 1.677707756070259E9, 0.0, 2023-03-01 13:55:56.070
26.0, 11247.643679099523, 14918.448319250147, 0.0, 0.0, 0.0, 0.0, 0.0, 0.0, -0.326, -0.8240000000000001, 0.518, 192.0, 0.0, 0.0, 0.0, 0.0, 0.0, 0.0, 0.0, 0.0, 0.0, 1.677707756078359E9, 0.0, 2023-03-01 13:55:56.078
27.0, 11250.169426222972, 14924.304476297437, 0.0, 0.0, 0.0, 0.0, 0.0, 0.0, -0.326, -0.8240000000000001, 0.518, 192.0, 0.0, 0.0, 0.0, 0.0, 0.0, 0.0, 0.0, 0.0, 0.0, 1.677707756078376E9, 0.0, 2023-03-01 13:55:56.078
28.0, 11246.369629665569, 14922.76220593002, 0.0, 0.0, 0.0, 0.0, 0.0, 0.0, -0.326, -0.8240000000000001, 0.518, 192.0, 0.0, 0.0, 0.0, 0.0, 0.0, 0.0, 0.0, 0.0, 0.0, 1.677707756086375E9, 0.0, 2023-03-01 13:55:56.086
29.0, 11239.999382495807, 14916.011979104518, 0.0, 0.0, 0.0, 0.0, 0.0, 0.0, -0.326, -0.8240000000000001, 0.518, 192.0, 0.0, 0.0, 0.0, 0.0, 0.0, 0.0, 0.0, 0.0, 0.0, 1.67770775608646E9, 0.0, 2023-03-01 13:55:56.086
30.0, 11242.569833108168, 14915.833165148875, 0.0, 0.0, 0.0, 0.0, 0.0, 0.0, -0.326, -0.8240000000000001, 0.518, 192.0, 0.0, 0.0, 0.0, 0.0, 0.0, 0.0, 0.0, 0.0, 0.0, 1.677707756093684E9, 0.0, 2023-03-01 13:55:56.093
31.0, 11242.346315663615, 14915.09555758185, 0.0, 0.0, 0.0, 0.0, 0.0, 0.0, -0.326, -0.8240000000000001, 0.518, 192.0, 0.0, 0.0, 0.0, 0.0, 0.0, 0.0, 0.0, 0.0, 0.0, 1.6777077560937E9, 0.0, 2023-03-01 13:55:56.093
32.0, 11237.786559794731, 14910.267580779504, 0.0, 0.0, 0.0, 0.0, 0.0, 0.0, -0.326, -0.8240000000000001, 0.518, 192.0, 0.0, 0.0, 0.0, 0.0, 0.0, 0.0, 0.0, 0.0, 0.0, 1.677707756101594E9, 0.0, 2023-03-01 13:55:56.101
33.0, 11236.93719350543, 14912.078072080383, 0.0, 0.0, 0.0, 0.0, 0.0, 0.0, -0.326, -0.8240000000000001, 0.518, 192.0, 0.0, 0.0, 0.0, 0.0, 0.0, 0.0, 0.0, 0.0, 0.0, 1.677707756101607E9, 0.0, 2023-03-01 13:55:56.101
34.0, 11239.261774928782, 14913.866211636809, 0.0, 0.0, 0.0, 0.0, 0.0, 0.0, -0.326, -0.8240000000000001, 0.518, 192.0, 0.0, 0.0, 0.0, 0.0, 0.0, 0.0, 0.0, 0.0, 0.0, 1.677707756109644E9, 0.0, 2023-03-01 13:55:56.109
35.0, 11242.145149963517, 14915.833165148875, 0.0, 0.0, 0.0, 0.0, 0.0, 0.0, -0.314, -0.8220000000000001, 0.52, 192.0, 246.0, 48.0, 230.0, 80.0, 16.0, 64.0, 0.0, 0.0, 0.0, 1.677707756109661E9, 0.0, 2023-03-01 13:55:56.109
36.0, 11236.400751638503, 14910.021711590494, 0.0, 0.0, 0.0, 0.0, 0.0, 0.0, -0.314, -0.8220000000000001, 0.52, 192.0, 0.0, 0.0, 0.0, 0.0, 0.0, 0.0, 0.0, 0.0, 0.0, 1.677707756117576E9, 0.0, 2023-03-01 13:55:56.117
37.0, 11235.7525510493, 14909.865249379309, 0.0, 0.0, 0.0, 0.0, 0.0, 0.0, -0.314, -0.8220000000000001, 0.52, 192.0, 0.0, 0.0, 0.0, 0.0, 0.0, 0.0, 0.0, 0.0, 0.0, 1.677707756117598E9, 0.0, 2023-03-01 13:55:56.117
38.0, 11239.686458073433, 14913.195659303148, 0.0, 0.0, 0.0, 0.0, 0.0, 0.0, -0.314, -0.8220000000000001, 0.52, 192.0, 0.0, 0.0, 0.0, 0.0, 0.0, 0.0, 0.0, 0.0, 0.0, 1.677707756123812E9, 0.0, 2023-03-01 13:55:56.123
39.0, 11245.497911631814, 14913.173307558693, 0.0, 0.0, 0.0, 0.0, 0.0, 0.0, -0.314, -0.8220000000000001, 0.52, 192.0, 0.0, 0.0, 0.0, 0.0, 0.0, 0.0, 0.0, 0.0, 0.0, 1.677707756130665E9, 0.0, 2023-03-01 13:55:56.130
40.0, 11245.386152909536, 14912.435699991669, 0.0, 0.0, 0.0, 0.0, 0.0, 0.0, -0.314, -0.8220000000000001, 0.52, 192.0, 0.0, 0.0, 0.0, 0.0, 0.0, 0.0, 0.0, 0.0, 0.0, 1.677707756130688E9, 0.0, 2023-03-01 13:55:56.130
41.0, 11240.848748785109, 14908.702958667633, 0.0, 0.0, 0.0, 0.0, 0.0, 0.0, -0.314, -0.8220000000000001, 0.52, 192.0, 0.0, 0.0, 0.0, 0.0, 0.0, 0.0, 0.0, 0.0, 0.0, 1.677707756138765E9, 0.0, 2023-03-01 13:55:56.138
42.0, 11242.234556941337, 14910.71461566861, 0.0, 0.0, 0.0, 0.0, 0.0, 0.0, -0.314, -0.8220000000000001, 0.52, 192.0, 0.0, 0.0, 0.0, 0.0, 0.0, 0.0, 0.0, 0.0, 0.0, 1.677707756138781E9, 0.0, 2023-03-01 13:55:56.138
43.0, 11244.447379642414, 14913.28506628097, 0.0, 0.0, 0.0, 0.0, 0.0, 0.0, -0.314, -0.8220000000000001, 0.52, 192.0, 0.0, 0.0, 0.0, 0.0, 0.0, 0.0, 0.0, 0.0, 0.0, 1.677707756145409E9, 0.0, 2023-03-01 13:55:56.145
44.0, 11248.090713988628, 14914.939095370662, 0.0, 0.0, 0.0, 0.0, 0.0, 0.0, -0.314, -0.8220000000000001, 0.52, 192.0, 0.0, 0.0, 0.0, 0.0, 0.0, 0.0, 0.0, 0.0, 0.0, 1.67770775614542E9, 0.0, 2023-03-01 13:55:56.145
45.0, 11242.03339124124, 14909.597028445844, 0.0, 0.0, 0.0, 0.0, 0.0, 0.0, -0.314, -0.8220000000000001, 0.52, 192.0, 0.0, 0.0, 0.0, 0.0, 0.0, 0.0, 0.0, 0.0, 0.0, 1.677707756153328E9, 0.0, 2023-03-01 13:55:56.153
46.0, 11239.999382495807, 14909.597028445844, 0.0, 0.0, 0.0, 0.0, 0.0, 0.0, -0.316, -0.8260000000000001, 0.518, 192.0, 246.0, 32.0, 230.0, 48.0, 16.0, 48.0, 0.0, 0.0, 0.0, 1.677707756153341E9, 0.0, 2023-03-01 13:55:56.153
47.0, 11248.425990155458, 14915.073205837394, 0.0, 0.0, 0.0, 0.0, 0.0, 0.0, -0.316, -0.8260000000000001, 0.518, 192.0, 0.0, 0.0, 0.0, 0.0, 0.0, 0.0, 0.0, 0.0, 0.0, 1.677707756161298E9, 0.0, 2023-03-01 13:55:56.161
48.0, 11248.89537678902, 14916.682531438177, 0.0, 0.0, 0.0, 0.0, 0.0, 0.0, -0.316, -0.8260000000000001, 0.518, 192.0, 0.0, 0.0, 0.0, 0.0, 0.0, 0.0, 0.0, 0.0, 0.0, 1.677707756161307E9, 0.0, 2023-03-01 13:55:56.161
49.0, 11241.251080185304, 14911.251057535537, 0.0, 0.0, 0.0, 0.0, 0.0, 0.0, -0.316, -0.8260000000000001, 0.518, 192.0, 0.0, 0.0, 0.0, 0.0, 0.0, 0.0, 0.0, 0.0, 0.0, 1.67770775616948E9, 0.0, 2023-03-01 13:55:56.169
50.0, 11242.770998808266, 14911.318112768902, 0.0, 0.0, 0.0, 0.0, 0.0, 0.0, -0.316, -0.8260000000000001, 0.518, 192.0, 0.0, 0.0, 0.0, 0.0, 0.0, 0.0, 0.0, 0.0, 0.0, 1.677707756169502E9, 0.0, 2023-03-01 13:55:56.169
51.0, 11244.89441453152, 14914.335598270369, 0.0, 0.0, 0.0, 0.0, 0.0, 0.0, -0.316, -0.8260000000000001, 0.518, 192.0, 0.0, 0.0, 0.0, 0.0, 0.0, 0.0, 0.0, 0.0, 0.0, 1.67770775617646E9, 0.0, 2023-03-01 13:55:56.176
52.0, 11244.760304064788, 14916.973104116096, 0.0, 0.0, 0.0, 0.0, 0.0, 0.0, -0.316, -0.8260000000000001, 0.518, 192.0, 0.0, 0.0, 0.0, 0.0, 0.0, 0.0, 0.0, 0.0, 0.0, 1.677707756176475E9, 0.0, 2023-03-01 13:55:56.176
53.0, 11241.027562740752, 14914.04502559245, 0.0, 0.0, 0.0, 0.0, 0.0, 0.0, -0.316, -0.8260000000000001, 0.518, 192.0, 0.0, 0.0, 0.0, 0.0, 0.0, 0.0, 0.0, 0.0, 0.0, 1.677707756184458E9, 0.0, 2023-03-01 13:55:56.184
54.0, 11235.7525510493, 14910.938133113163, 0.0, 0.0, 0.0, 0.0, 0.0, 0.0, -0.316, -0.8260000000000001, 0.518, 192.0, 0.0, 0.0, 0.0, 0.0, 0.0, 0.0, 0.0, 0.0, 0.0, 1.677707756184473E9, 0.0, 2023-03-01 13:55:56.184
55.0, 11241.094617974117, 14913.843859892353, 0.0, 0.0, 0.0, 0.0, 0.0, 0.0, -0.316, -0.8260000000000001, 0.518, 192.0, 0.0, 0.0, 0.0, 0.0, 0.0, 0.0, 0.0, 0.0, 0.0, 1.677707756192358E9, 0.0, 2023-03-01 13:55:56.192
56.0, 11243.665068586477, 14915.050854092939, 0.0, 0.0, 0.0, 0.0, 0.0, 0.0, -0.318, -0.8280000000000001, 0.524, 192.0, 246.0, 16.0, 230.0, 32.0, 16.0, 96.0, 0.0, 0.0, 0.0, 1.677707756199623E9, 0.0, 2023-03-01 13:55:56.199
57.0, 11240.55817610719, 14911.832202891375, 0.0, 0.0, 0.0, 0.0, 0.0, 0.0, -0.318, -0.8280000000000001, 0.524, 192.0, 0.0, 0.0, 0.0, 0.0, 0.0, 0.0, 0.0, 0.0, 0.0, 1.677707756199635E9, 0.0, 2023-03-01 13:55:56.199
58.0, 11240.334658662638, 14912.927438369685, 0.0, 0.0, 0.0, 0.0, 0.0, 0.0, -0.318, -0.8280000000000001, 0.524, 192.0, 0.0, 0.0, 0.0, 0.0, 0.0, 0.0, 0.0, 0.0, 0.0, 1.677707756205681E9, 0.0, 2023-03-01 13:55:56.205
59.0, 11249.163597722483, 14919.789423917464, 0.0, 0.0, 0.0, 0.0, 0.0, 0.0, -0.318, -0.8280000000000001, 0.524, 192.0, 0.0, 0.0, 0.0, 0.0, 0.0, 0.0, 0.0, 0.0, 0.0, 1.677707756205696E9, 0.0, 2023-03-01 13:55:56.205
60.0, 11251.287013445737, 14918.80594716143, 0.0, 0.0, 0.0, 0.0, 0.0, 0.0, -0.318, -0.8280000000000001, 0.524, 192.0, 0.0, 0.0, 0.0, 0.0, 0.0, 0.0, 0.0, 0.0, 0.0, 1.677707756213479E9, 0.0, 2023-03-01 13:55:56.213
61.0, 11243.41919939747, 14915.721406426599, 0.0, 0.0, 0.0, 0.0, 0.0, 0.0, -0.318, -0.8280000000000001, 0.524, 192.0, 0.0, 0.0, 0.0, 0.0, 0.0, 0.0, 0.0, 0.0, 0.0, 1.677707756213499E9, 0.0, 2023-03-01 13:55:56.213
62.0, 11242.435722641436, 14916.682531438177, 0.0, 0.0, 0.0, 0.0, 0.0, 0.0, -0.318, -0.8280000000000001, 0.524, 192.0, 0.0, 0.0, 0.0, 0.0, 0.0, 0.0, 0.0, 0.0, 0.0, 1.677707756221646E9, 0.0, 2023-03-01 13:55:56.221
63.0, 11242.279260430249, 14919.655313450732, 0.0, 0.0, 0.0, 0.0, 0.0, 0.0, -0.318, -0.8280000000000001, 0.524, 192.0, 0.0, 0.0, 0.0, 0.0, 0.0, 0.0, 0.0, 0.0, 0.0, 1.677707756221662E9, 0.0, 2023-03-01 13:55:56.221
64.0, 11248.493045388825, 14921.756377429532, 0.0, 0.0, 0.0, 0.0, 0.0, 0.0, -0.318, -0.8280000000000001, 0.524, 192.0, 0.0, 0.0, 0.0, 0.0, 0.0, 0.0, 0.0, 0.0, 0.0, 1.677707756228739E9, 0.0, 2023-03-01 13:55:56.228
65.0, 11247.800141310709, 14921.465804751613, 0.0, 0.0, 0.0, 0.0, 0.0, 0.0, -0.318, -0.8280000000000001, 0.524, 192.0, 0.0, 0.0, 0.0, 0.0, 0.0, 0.0, 0.0, 0.0, 0.0, 1.677707756228754E9, 0.0, 2023-03-01 13:55:56.228
66.0, 11247.084885488139, 14923.633923963776, 0.0, 0.0, 0.0, 0.0, 0.0, 0.0, -0.322, -0.8260000000000001, 0.526, 192.0, 245.0, 240.0, 230.0, 48.0, 16.0, 112.0, 0.0, 0.0, 0.0, 1.677707756236198E9, 0.0, 2023-03-01 13:55:56.236
67.0, 11252.6057663686, 14927.120796098805, 0.0, 0.0, 0.0, 0.0, 0.0, 0.0, -0.322, -0.8260000000000001, 0.526, 192.0, 0.0, 0.0, 0.0, 0.0, 0.0, 0.0, 0.0, 0.0, 0.0, 1.677707756236211E9, 0.0, 2023-03-01 13:55:56.236
68.0, 11257.567853637678, 14930.272392067003, 0.0, 0.0, 0.0, 0.0, 0.0, 0.0, -0.322, -0.8260000000000001, 0.526, 192.0, 0.0, 0.0, 0.0, 0.0, 0.0, 0.0, 0.0, 0.0, 0.0, 1.677707756244318E9, 0.0, 2023-03-01 13:55:56.244
69.0, 11259.266586216281, 14936.24030783657, 0.0, 0.0, 0.0, 0.0, 0.0, 0.0, -0.322, -0.8260000000000001, 0.526, 192.0, 0.0, 0.0, 0.0, 0.0, 0.0, 0.0, 0.0, 0.0, 0.0, 1.677707756244329E9, 0.0, 2023-03-01 13:55:56.244
70.0, 11252.337545435137, 14933.245174079559, 0.0, 0.0, 0.0, 0.0, 0.0, 0.0, -0.322, -0.8260000000000001, 0.526, 192.0, 0.0, 0.0, 0.0, 0.0, 0.0, 0.0, 0.0, 0.0, 0.0, 1.677707756251384E9, 0.0, 2023-03-01 13:55:56.251
71.0, 11250.884682045542, 14928.305438554937, 0.0, 0.0, 0.0, 0.0, 0.0, 0.0, -0.322, -0.8260000000000001, 0.526, 192.0, 0.0, 0.0, 0.0, 0.0, 0.0, 0.0, 0.0, 0.0, 0.0, 1.677707756257867E9, 0.0, 2023-03-01 13:55:56.257
72.0, 11258.059592015696, 14929.981819389084, 0.0, 0.0, 0.0, 0.0, 0.0, 0.0, -0.322, -0.8260000000000001, 0.526, 192.0, 0.0, 0.0, 0.0, 0.0, 0.0, 0.0, 0.0, 0.0, 0.0, 1.677707756257889E9, 0.0, 2023-03-01 13:55:56.257
73.0, 11255.46678965888, 14927.43372052118, 0.0, 0.0, 0.0, 0.0, 0.0, 0.0, -0.322, -0.8260000000000001, 0.526, 192.0, 0.0, 0.0, 0.0, 0.0, 0.0, 0.0, 0.0, 0.0, 0.0, 1.677707756265783E9, 0.0, 2023-03-01 13:55:56.265
74.0, 11251.599937868112, 14926.405540276235, 0.0, 0.0, 0.0, 0.0, 0.0, 0.0, -0.322, -0.8260000000000001, 0.526, 192.0, 0.0, 0.0, 0.0, 0.0, 0.0, 0.0, 0.0, 0.0, 0.0, 1.677707756265803E9, 0.0, 2023-03-01 13:55:56.265
75.0, 11245.117931976072, 14925.533822242478, 0.0, 0.0, 0.0, 0.0, 0.0, 0.0, -0.322, -0.8260000000000001, 0.526, 192.0, 0.0, 0.0, 0.0, 0.0, 0.0, 0.0, 0.0, 0.0, 0.0, 1.677707756273938E9, 0.0, 2023-03-01 13:55:56.273
76.0, 11248.202472710906, 14931.837014178875, 0.0, 0.0, 0.0, 0.0, 0.0, 0.0, -0.324, -0.8260000000000001, 0.522, 192.0, 245.0, 224.0, 230.0, 48.0, 16.0, 80.0, 0.0, 0.0, 0.0, 1.677707756273955E9, 0.0, 2023-03-01 13:55:56.273
77.0, 11254.885644303042, 14933.111063612827, 0.0, 0.0, 0.0, 0.0, 0.0, 0.0, -0.324, -0.8260000000000001, 0.522, 192.0, 0.0, 0.0, 0.0, 0.0, 0.0, 0.0, 0.0, 0.0, 0.0, 1.677707756280851E9, 0.0, 2023-03-01 13:55:56.280
78.0, 11250.03531575624, 14924.326828041892, 0.0, 0.0, 0.0, 0.0, 0.0, 0.0, -0.324, -0.8260000000000001, 0.522, 192.0, 0.0, 0.0, 0.0, 0.0, 0.0, 0.0, 0.0, 0.0, 0.0, 1.677707756280863E9, 0.0, 2023-03-01 13:55:56.280
79.0, 11246.079056987652, 14919.85647915083, 0.0, 0.0, 0.0, 0.0, 0.0, 0.0, -0.324, -0.8260000000000001, 0.522, 192.0, 0.0, 0.0, 0.0, 0.0, 0.0, 0.0, 0.0, 0.0, 0.0, 1.677707756288483E9, 0.0, 2023-03-01 13:55:56.288
80.0, 11260.250062972316, 14930.09357811136, 0.0, 0.0, 0.0, 0.0, 0.0, 0.0, -0.324, -0.8260000000000001, 0.522, 192.0, 0.0, 0.0, 0.0, 0.0, 0.0, 0.0, 0.0, 0.0, 0.0, 1.677707756288508E9, 0.0, 2023-03-01 13:55:56.288
81.0, 11277.527961436268, 14941.202395105649, 0.0, 0.0, 0.0, 0.0, 0.0, 0.0, -0.324, -0.8260000000000001, 0.522, 192.0, 0.0, 0.0, 0.0, 0.0, 0.0, 0.0, 0.0, 0.0, 0.0, 1.677707756296469E9, 0.0, 2023-03-01 13:55:56.296
82.0, 11268.095525276129, 14940.040104393973, 0.0, 0.0, 0.0, 0.0, 0.0, 0.0, -0.324, -0.8260000000000001, 0.522, 192.0, 0.0, 0.0, 0.0, 0.0, 0.0, 0.0, 0.0, 0.0, 0.0, 1.677707756296486E9, 0.0, 2023-03-01 13:55:56.296
83.0, 11241.31813541867, 14921.309342540426, 0.0, 0.0, 0.0, 0.0, 0.0, 0.0, -0.324, -0.8260000000000001, 0.522, 192.0, 0.0, 0.0, 0.0, 0.0, 0.0, 0.0, 0.0, 0.0, 0.0, 1.677707756303428E9, 0.0, 2023-03-01 13:55:56.303
84.0, 11233.89735625951, 14912.61451394731, 0.0, 0.0, 0.0, 0.0, 0.0, 0.0, -0.324, -0.8260000000000001, 0.522, 192.0, 0.0, 0.0, 0.0, 0.0, 0.0, 0.0, 0.0, 0.0, 0.0, 1.677707756303447E9, 0.0, 2023-03-01 13:55:56.303
85.0, 11239.641754584522, 14917.28602853847, 0.0, 0.0, 0.0, 0.0, 0.0, 0.0, -0.324, -0.8260000000000001, 0.522, 192.0, 0.0, 0.0, 0.0, 0.0, 0.0, 0.0, 0.0, 0.0, 0.0, 1.677707756310233E9, 0.0, 2023-03-01 13:55:56.310
86.0, 11244.112103475583, 14921.018769862507, 0.0, 0.0, 0.0, 0.0, 0.0, 0.0, -0.322, -0.8280000000000001, 0.516, 192.0, 245.0, 240.0, 230.0, 32.0, 16.0, 32.0, 0.0, 0.0, 0.0, 1.677707756318174E9, 0.0, 2023-03-01 13:55:56.318
87.0, 11248.358934922093, 14925.064435608916, 0.0, 0.0, 0.0, 0.0, 0.0, 0.0, -0.322, -0.8280000000000001, 0.516, 192.0, 0.0, 0.0, 0.0, 0.0, 0.0, 0.0, 0.0, 0.0, 0.0, 1.67770775631819E9, 0.0, 2023-03-01 13:55:56.318
88.0, 11251.957565779396, 14927.187851332172, 0.0, 0.0, 0.0, 0.0, 0.0, 0.0, -0.322, -0.8280000000000001, 0.516, 192.0, 0.0, 0.0, 0.0, 0.0, 0.0, 0.0, 0.0, 0.0, 0.0, 1.677707756326034E9, 0.0, 2023-03-01 13:55:56.326
89.0, 11258.976013538362, 14929.91476415572, 0.0, 0.0, 0.0, 0.0, 0.0, 0.0, -0.322, -0.8280000000000001, 0.516, 192.0, 0.0, 0.0, 0.0, 0.0, 0.0, 0.0, 0.0, 0.0, 0.0, 1.677707756326048E9, 0.0, 2023-03-01 13:55:56.326
90.0, 11252.963394279885, 14928.48425251058, 0.0, 0.0, 0.0, 0.0, 0.0, 0.0, -0.322, -0.8280000000000001, 0.516, 192.0, 0.0, 0.0, 0.0, 0.0, 0.0, 0.0, 0.0, 0.0, 0.0, 1.677707756333254E9, 0.0, 2023-03-01 13:55:56.333
91.0, 11238.099484217106, 14919.09651983935, 0.0, 0.0, 0.0, 0.0, 0.0, 0.0, -0.322, -0.8280000000000001, 0.516, 192.0, 0.0, 0.0, 0.0, 0.0, 0.0, 0.0, 0.0, 0.0, 0.0, 1.677707756333263E9, 0.0, 2023-03-01 13:55:56.333
92.0, 11239.977030751352, 14918.627133205788, 0.0, 0.0, 0.0, 0.0, 0.0, 0.0, -0.322, -0.8280000000000001, 0.516, 192.0, 0.0, 0.0, 0.0, 0.0, 0.0, 0.0, 0.0, 0.0, 0.0, 1.677707756340766E9, 0.0, 2023-03-01 13:55:56.340
93.0, 11244.447379642414, 14920.348217528846, 0.0, 0.0, 0.0, 0.0, 0.0, 0.0, -0.322, -0.8280000000000001, 0.516, 192.0, 0.0, 0.0, 0.0, 0.0, 0.0, 0.0, 0.0, 0.0, 0.0, 1.677707756340785E9, 0.0, 2023-03-01 13:55:56.340
94.0, 11241.854577285598, 14919.700016939643, 0.0, 0.0, 0.0, 0.0, 0.0, 0.0, -0.322, -0.8280000000000001, 0.516, 192.0, 0.0, 0.0, 0.0, 0.0, 0.0, 0.0, 0.0, 0.0, 0.0, 1.677707756348829E9, 0.0, 2023-03-01 13:55:56.348
95.0, 11236.087827216128, 14916.302551782437, 0.0, 0.0, 0.0, 0.0, 0.0, 0.0, -0.322, -0.8280000000000001, 0.516, 192.0, 0.0, 0.0, 0.0, 0.0, 0.0, 0.0, 0.0, 0.0, 0.0, 1.677707756348853E9, 0.0, 2023-03-01 13:55:56.348
96.0, 11241.429894140947, 14920.772900673497, 0.0, 0.0, 0.0, 0.0, 0.0, 0.0, -0.314, -0.836, 0.522, 192.0, 246.0, 48.0, 229.0, 224.0, 16.0, 80.0, 0.0, 0.0, 0.0, 1.677707756356737E9, 0.0, 2023-03-01 13:55:56.356
97.0, 11238.770036550766, 14914.402653503736, 0.0, 0.0, 0.0, 0.0, 0.0, 0.0, -0.314, -0.836, 0.522, 192.0, 0.0, 0.0, 0.0, 0.0, 0.0, 0.0, 0.0, 0.0, 0.0, 1.677707756356755E9, 0.0, 2023-03-01 13:55:56.356
98.0, 11226.141300933517, 14908.18886854516, 0.0, 0.0, 0.0, 0.0, 0.0, 0.0, -0.314, -0.836, 0.522, 192.0, 0.0, 0.0, 0.0, 0.0, 0.0, 0.0, 0.0, 0.0, 0.0, 1.677707756363356E9, 0.0, 2023-03-01 13:55:56.363
99.0, 11226.677742800444, 14906.981874344574, 0.0, 0.0, 0.0, 0.0, 0.0, 0.0, -0.314, -0.836, 0.522, 192.0, 0.0, 0.0, 0.0, 0.0, 0.0, 0.0, 0.0, 0.0, 0.0, 1.677707756363368E9, 0.0, 2023-03-01 13:55:56.363
100.0, 11226.186004422427, 14900.432813219168, 0.0, 0.0, 0.0, 0.0, 0.0, 0.0, -0.314, -0.836, 0.522, 192.0, 0.0, 0.0, 0.0, 0.0, 0.0, 0.0, 0.0, 0.0, 0.0, 1.677707756370427E9, 0.0, 2023-03-01 13:55:56.370
101.0, 11214.943076961408, 14888.27346423548, 0.0, 0.0, 0.0, 0.0, 0.0, 0.0, -0.314, -0.836, 0.522, 192.0, 0.0, 0.0, 0.0, 0.0, 0.0, 0.0, 0.0, 0.0, 0.0, 1.677707756378299E9, 0.0, 2023-03-01 13:55:56.378
102.0, 11210.02569318124, 14881.076202520873, 0.0, 0.0, 0.0, 0.0, 0.0, 0.0, -0.314, -0.836, 0.522, 192.0, 0.0, 0.0, 0.0, 0.0, 0.0, 0.0, 0.0, 0.0, 0.0, 1.677707756378307E9, 0.0, 2023-03-01 13:55:56.378
103.0, 11188.523315015234, 14859.529120865956, 0.0, 0.0, 0.0, 0.0, 0.0, 0.0, -0.314, -0.836, 0.522, 192.0, 0.0, 0.0, 0.0, 0.0, 0.0, 0.0, 0.0, 0.0, 0.0, 1.677707756386398E9, 0.0, 2023-03-01 13:55:56.386
104.0, 11169.412573505948, 14835.143367665216, 0.0, 0.0, 0.0, 0.0, 0.0, 0.0, -0.314, -0.836, 0.522, 192.0, 0.0, 0.0, 0.0, 0.0, 0.0, 0.0, 0.0, 0.0, 0.0, 1.677707756386416E9, 0.0, 2023-03-01 13:55:56.386
105.0, 11158.951957100864, 14821.486451803024, 0.0, 0.0, 0.0, 0.0, 0.0, 0.0, -0.314, -0.836, 0.522, 192.0, 0.0, 0.0, 0.0, 0.0, 0.0, 0.0, 0.0, 0.0, 0.0, 1.677707756393065E9, 0.0, 2023-03-01 13:55:56.393
106.0, 11143.43984644888, 14807.047224884895, 0.0, 0.0, 0.0, 0.0, 0.0, 0.0, -0.318, -0.8200000000000001, 0.518, 192.0, 246.0, 16.0, 230.0, 96.0, 16.0, 48.0, 0.0, 0.0, 0.0, 1.677707756393084E9, 0.0, 2023-03-01 13:55:56.393
107.0, 11121.982171771786, 14789.322291531837, 0.0, 0.0, 0.0, 0.0, 0.0, 0.0, -0.318, -0.8200000000000001, 0.518, 192.0, 0.0, 0.0, 0.0, 0.0, 0.0, 0.0, 0.0, 0.0, 0.0, 1.677707756401006E9, 0.0, 2023-03-01 13:55:56.401
108.0, 11110.895706521953, 14774.011346579951, 0.0, 0.0, 0.0, 0.0, 0.0, 0.0, -0.318, -0.8200000000000001, 0.518, 192.0, 0.0, 0.0, 0.0, 0.0, 0.0, 0.0, 0.0, 0.0, 0.0, 1.677707756401022E9, 0.0, 2023-03-01 13:55:56.401
109.0, 11097.842287760055, 14749.804407334854, 0.0, 0.0, 0.0, 0.0, 0.0, 0.0, -0.318, -0.8200000000000001, 0.518, 192.0, 0.0, 0.0, 0.0, 0.0, 0.0, 0.0, 0.0, 0.0, 0.0, 1.677707756409078E9, 0.0, 2023-03-01 13:55:56.409
110.0, 11075.267025860194, 14728.34673265776, 0.0, 0.0, 0.0, 0.0, 0.0, 0.0, -0.318, -0.8200000000000001, 0.518, 192.0, 0.0, 0.0, 0.0, 0.0, 0.0, 0.0, 0.0, 0.0, 0.0, 1.677707756409088E9, 0.0, 2023-03-01 13:55:56.409
111.0, 11065.588720511047, 14719.450738364547, 0.0, 0.0, 0.0, 0.0, 0.0, 0.0, -0.318, -0.8200000000000001, 0.518, 192.0, 0.0, 0.0, 0.0, 0.0, 0.0, 0.0, 0.0, 0.0, 0.0, 1.677707756416185E9, 0.0, 2023-03-01 13:55:56.416
112.0, 11054.770476194677, 14707.29138938086, 0.0, 0.0, 0.0, 0.0, 0.0, 0.0, -0.318, -0.8200000000000001, 0.518, 192.0, 0.0, 0.0, 0.0, 0.0, 0.0, 0.0, 0.0, 0.0, 0.0, 1.677707756416198E9, 0.0, 2023-03-01 13:55:56.416
113.0, 11039.727752176255, 14689.81232521681, 0.0, 0.0, 0.0, 0.0, 0.0, 0.0, -0.318, -0.8200000000000001, 0.518, 192.0, 0.0, 0.0, 0.0, 0.0, 0.0, 0.0, 0.0, 0.0, 0.0, 1.67770775642359E9, 0.0, 2023-03-01 13:55:56.423
114.0, 11037.358467263994, 14687.711261238012, 0.0, 0.0, 0.0, 0.0, 0.0, 0.0, -0.318, -0.8200000000000001, 0.518, 192.0, 0.0, 0.0, 0.0, 0.0, 0.0, 0.0, 0.0, 0.0, 0.0, 1.677707756423599E9, 0.0, 2023-03-01 13:55:56.423
115.0, 11040.867691143476, 14689.47704904998, 0.0, 0.0, 0.0, 0.0, 0.0, 0.0, -0.318, -0.8200000000000001, 0.518, 192.0, 0.0, 0.0, 0.0, 0.0, 0.0, 0.0, 0.0, 0.0, 0.0, 1.67770775643079E9, 0.0, 2023-03-01 13:55:56.430
116.0, 11036.911432374887, 14687.174819371085, 0.0, 0.0, 0.0, 0.0, 0.0, 0.0, -0.312, -0.8180000000000001, 0.52, 192.0, 246.0, 64.0, 230.0, 112.0, 16.0, 64.0, 0.0, 0.0, 0.0, 1.677707756430844E9, 0.0, 2023-03-01 13:55:56.430
117.0, 11029.937688104832, 14683.442078047048, 0.0, 0.0, 0.0, 0.0, 0.0, 0.0, -0.312, -0.8180000000000001, 0.52, 192.0, 0.0, 0.0, 0.0, 0.0, 0.0, 0.0, 0.0, 0.0, 0.0, 1.677707756438694E9, 0.0, 2023-03-01 13:55:56.438
118.0, 11032.195214294818, 14680.022261145385, 0.0, 0.0, 0.0, 0.0, 0.0, 0.0, -0.312, -0.8180000000000001, 0.52, 192.0, 0.0, 0.0, 0.0, 0.0, 0.0, 0.0, 0.0, 0.0, 0.0, 1.677707756445803E9, 0.0, 2023-03-01 13:55:56.445
119.0, 11027.076664814553, 14674.568435498291, 0.0, 0.0, 0.0, 0.0, 0.0, 0.0, -0.312, -0.8180000000000001, 0.52, 192.0, 0.0, 0.0, 0.0, 0.0, 0.0, 0.0, 0.0, 0.0, 0.0, 1.677707756445845E9, 0.0, 2023-03-01 13:55:56.445
120.0, 11032.888118372932, 14684.559665269813, 0.0, 0.0, 0.0, 0.0, 0.0, 0.0, -0.312, -0.8180000000000001, 0.52, 192.0, 0.0, 0.0, 0.0, 0.0, 0.0, 0.0, 0.0, 0.0, 0.0, 1.677707756453313E9, 0.0, 2023-03-01 13:55:56.453
121.0, 11040.599470210012, 14689.588807772257, 0.0, 0.0, 0.0, 0.0, 0.0, 0.0, -0.312, -0.8180000000000001, 0.52, 192.0, 0.0, 0.0, 0.0, 0.0, 0.0, 0.0, 0.0, 0.0, 0.0, 1.677707756453327E9, 0.0, 2023-03-01 13:55:56.453
122.0, 11037.313763775082, 14684.090278636251, 0.0, 0.0, 0.0, 0.0, 0.0, 0.0, -0.312, -0.8180000000000001, 0.52, 192.0, 0.0, 0.0, 0.0, 0.0, 0.0, 0.0, 0.0, 0.0, 0.0, 1.677707756461471E9, 0.0, 2023-03-01 13:55:56.461
123.0, 11046.634441212946, 14689.320586838794, 0.0, 0.0, 0.0, 0.0, 0.0, 0.0, -0.312, -0.8180000000000001, 0.52, 192.0, 0.0, 0.0, 0.0, 0.0, 0.0, 0.0, 0.0, 0.0, 0.0, 1.677707756461493E9, 0.0, 2023-03-01 13:55:56.461
124.0, 11044.645135956423, 14697.210752631516, 0.0, 0.0, 0.0, 0.0, 0.0, 0.0, -0.312, -0.8180000000000001, 0.52, 192.0, 0.0, 0.0, 0.0, 0.0, 0.0, 0.0, 0.0, 0.0, 0.0, 1.677707756469313E9, 0.0, 2023-03-01 13:55:56.469
125.0, 11056.558615751102, 14709.95124697104, 0.0, 0.0, 0.0, 0.0, 0.0, 0.0, -0.312, -0.8180000000000001, 0.52, 192.0, 0.0, 0.0, 0.0, 0.0, 0.0, 0.0, 0.0, 0.0, 0.0, 1.677707756469331E9, 0.0, 2023-03-01 13:55:56.469
126.0, 11067.309804834105, 14719.830718020286, 0.0, 0.0, 0.0, 0.0, 0.0, 0.0, -0.312, -0.8180000000000001, 0.52, 192.0, 0.0, 0.0, 0.0, 0.0, 0.0, 0.0, 0.0, 0.0, 0.0, 1.677707756475884E9, 0.0, 2023-03-01 13:55:56.475
127.0, 11082.464287574803, 14734.515814127424, 0.0, 0.0, 0.0, 0.0, 0.0, 0.0, -0.32, -0.8140000000000001, 0.522, 192.0, 246.0, 0.0, 230.0, 144.0, 16.0, 80.0, 0.0, 0.0, 0.0, 1.677707756475892E9, 0.0, 2023-03-01 13:55:56.475
128.0, 11099.541020338658, 14749.558538145846, 0.0, 0.0, 0.0, 0.0, 0.0, 0.0, -0.32, -0.8140000000000001, 0.522, 192.0, 0.0, 0.0, 0.0, 0.0, 0.0, 0.0, 0.0, 0.0, 0.0, 1.677707756484001E9, 0.0, 2023-03-01 13:55:56.484
129.0, 11098.937523238365, 14758.029849294408, 0.0, 0.0, 0.0, 0.0, 0.0, 0.0, -0.32, -0.8140000000000001, 0.522, 192.0, 0.0, 0.0, 0.0, 0.0, 0.0, 0.0, 0.0, 0.0, 0.0, 1.677707756484019E9, 0.0, 2023-03-01 13:55:56.484
130.0, 11118.33883742557, 14777.855846626264, 0.0, 0.0, 0.0, 0.0, 0.0, 0.0, -0.32, -0.8140000000000001, 0.522, 192.0, 0.0, 0.0, 0.0, 0.0, 0.0, 0.0, 0.0, 0.0, 0.0, 1.677707756491979E9, 0.0, 2023-03-01 13:55:56.491
131.0, 11130.118206753517, 14790.73045143252, 0.0, 0.0, 0.0, 0.0, 0.0, 0.0, -0.32, -0.8140000000000001, 0.522, 192.0, 0.0, 0.0, 0.0, 0.0, 0.0, 0.0, 0.0, 0.0, 0.0, 1.677707756492E9, 0.0, 2023-03-01 13:55:56.492
132.0, 11130.341724198071, 14792.518590988946, 0.0, 0.0, 0.0, 0.0, 0.0, 0.0, -0.32, -0.8140000000000001, 0.522, 192.0, 0.0, 0.0, 0.0, 0.0, 0.0, 0.0, 0.0, 0.0, 0.0, 1.677707756499078E9, 0.0, 2023-03-01 13:55:56.499
133.0, 11127.123072996506, 14792.11625958875, 0.0, 0.0, 0.0, 0.0, 0.0, 0.0, -0.32, -0.8140000000000001, 0.522, 192.0, 0.0, 0.0, 0.0, 0.0, 0.0, 0.0, 0.0, 0.0, 0.0, 1.677707756505548E9, 0.0, 2023-03-01 13:55:56.505
134.0, 11135.281459722693, 14804.946160906096, 0.0, 0.0, 0.0, 0.0, 0.0, 0.0, -0.32, -0.8140000000000001, 0.522, 192.0, 0.0, 0.0, 0.0, 0.0, 0.0, 0.0, 0.0, 0.0, 0.0, 1.677707756505563E9, 0.0, 2023-03-01 13:55:56.505
135.0, 11149.698334896368, 14822.134652392228, 0.0, 0.0, 0.0, 0.0, 0.0, 0.0, -0.32, -0.8140000000000001, 0.522, 192.0, 0.0, 0.0, 0.0, 0.0, 0.0, 0.0, 0.0, 0.0, 0.0, 1.677707756513636E9, 0.0, 2023-03-01 13:55:56.513
136.0, 11156.672079166423, 14826.023855927451, 0.0, 0.0, 0.0, 0.0, 0.0, 0.0, -0.32, -0.8140000000000001, 0.522, 192.0, 0.0, 0.0, 0.0, 0.0, 0.0, 0.0, 0.0, 0.0, 0.0, 1.677707756513648E9, 0.0, 2023-03-01 13:55:56.513
137.0, 11164.182265303405, 14835.500995576502, 0.0, 0.0, 0.0, 0.0, 0.0, 0.0, -0.328, -0.8200000000000001, 0.524, 192.0, 245.0, 192.0, 230.0, 96.0, 16.0, 96.0, 0.0, 0.0, 0.0, 1.677707756521579E9, 0.0, 2023-03-01 13:55:56.521
138.0, 11173.435887507903, 14843.860548002785, 0.0, 0.0, 0.0, 0.0, 0.0, 0.0, -0.328, -0.8200000000000001, 0.524, 192.0, 0.0, 0.0, 0.0, 0.0, 0.0, 0.0, 0.0, 0.0, 0.0, 1.677707756521596E9, 0.0, 2023-03-01 13:55:56.521
139.0, 11182.086012612106, 14856.154007453206, 0.0, 0.0, 0.0, 0.0, 0.0, 0.0, -0.328, -0.8200000000000001, 0.524, 192.0, 0.0, 0.0, 0.0, 0.0, 0.0, 0.0, 0.0, 0.0, 0.0, 1.677707756528616E9, 0.0, 2023-03-01 13:55:56.528
140.0, 11187.338672559104, 14862.077219733861, 0.0, 0.0, 0.0, 0.0, 0.0, 0.0, -0.328, -0.8200000000000001, 0.524, 192.0, 0.0, 0.0, 0.0, 0.0, 0.0, 0.0, 0.0, 0.0, 0.0, 1.677707756528628E9, 0.0, 2023-03-01 13:55:56.528
141.0, 11188.97034990434, 14863.775952312464, 0.0, 0.0, 0.0, 0.0, 0.0, 0.0, -0.328, -0.8200000000000001, 0.524, 192.0, 0.0, 0.0, 0.0, 0.0, 0.0, 0.0, 0.0, 0.0, 0.0, 1.67770775653617E9, 0.0, 2023-03-01 13:55:56.536
142.0, 11194.513582529258, 14871.576711127367, 0.0, 0.0, 0.0, 0.0, 0.0, 0.0, -0.328, -0.8200000000000001, 0.524, 192.0, 0.0, 0.0, 0.0, 0.0, 0.0, 0.0, 0.0, 0.0, 0.0, 1.67770775653619E9, 0.0, 2023-03-01 13:55:56.536
143.0, 11202.537858788713, 14879.153952497716, 0.0, 0.0, 0.0, 0.0, 0.0, 0.0, -0.328, -0.8200000000000001, 0.524, 192.0, 0.0, 0.0, 0.0, 0.0, 0.0, 0.0, 0.0, 0.0, 0.0, 1.677707756544192E9, 0.0, 2023-03-01 13:55:56.544
144.0, 11209.802175736688, 14885.010109545006, 0.0, 0.0, 0.0, 0.0, 0.0, 0.0, -0.328, -0.8200000000000001, 0.524, 192.0, 0.0, 0.0, 0.0, 0.0, 0.0, 0.0, 0.0, 0.0, 0.0, 1.677707756544223E9, 0.0, 2023-03-01 13:55:56.544
145.0, 11209.086919914118, 14884.5630746559, 0.0, 0.0, 0.0, 0.0, 0.0, 0.0, -0.328, -0.8200000000000001, 0.524, 192.0, 0.0, 0.0, 0.0, 0.0, 0.0, 0.0, 0.0, 0.0, 0.0, 1.677707756552235E9, 0.0, 2023-03-01 13:55:56.552
146.0, 11211.813832737666, 14884.741888611543, 0.0, 0.0, 0.0, 0.0, 0.0, 0.0, -0.328, -0.8200000000000001, 0.524, 192.0, 0.0, 0.0, 0.0, 0.0, 0.0, 0.0, 0.0, 0.0, 0.0, 1.677707756552251E9, 0.0, 2023-03-01 13:55:56.552
147.0, 11220.642771797511, 14893.28025499347, 0.0, 0.0, 0.0, 0.0, 0.0, 0.0, -0.328, -0.8260000000000001, 0.52, 192.0, 245.0, 192.0, 230.0, 48.0, 16.0, 64.0, 0.0, 0.0, 0.0, 1.677707756558356E9, 0.0, 2023-03-01 13:55:56.558
148.0, 11224.979010221841, 14898.778784129476, 0.0, 0.0, 0.0, 0.0, 0.0, 0.0, -0.328, -0.8260000000000001, 0.52, 192.0, 0.0, 0.0, 0.0, 0.0, 0.0, 0.0, 0.0, 0.0, 0.0, 1.677707756565741E9, 0.0, 2023-03-01 13:55:56.565
149.0, 11221.290972386716, 14896.789478872954, 0.0, 0.0, 0.0, 0.0, 0.0, 0.0, -0.328, -0.8260000000000001, 0.52, 192.0, 0.0, 0.0, 0.0, 0.0, 0.0, 0.0, 0.0, 0.0, 0.0, 1.677707756565774E9, 0.0, 2023-03-01 13:55:56.565
150.0, 11220.329847375137, 14895.493077694546, 0.0, 0.0, 0.0, 0.0, 0.0, 0.0, -0.328, -0.8260000000000001, 0.52, 192.0, 0.0, 0.0, 0.0, 0.0, 0.0, 0.0, 0.0, 0.0, 0.0, 1.67770775657395E9, 0.0, 2023-03-01 13:55:56.573
151.0, 11225.738969533322, 14899.85166786333, 0.0, 0.0, 0.0, 0.0, 0.0, 0.0, -0.328, -0.8260000000000001, 0.52, 192.0, 0.0, 0.0, 0.0, 0.0, 0.0, 0.0, 0.0, 0.0, 0.0, 1.677707756573969E9, 0.0, 2023-03-01 13:55:56.573
152.0, 11225.716617788867, 14900.075185307884, 0.0, 0.0, 0.0, 0.0, 0.0, 0.0, -0.328, -0.8260000000000001, 0.52, 192.0, 0.0, 0.0, 0.0, 0.0, 0.0, 0.0, 0.0, 0.0, 0.0, 1.677707756580961E9, 0.0, 2023-03-01 13:55:56.580
153.0, 11220.419254352959, 14900.119888796795, 0.0, 0.0, 0.0, 0.0, 0.0, 0.0, -0.328, -0.8260000000000001, 0.52, 192.0, 0.0, 0.0, 0.0, 0.0, 0.0, 0.0, 0.0, 0.0, 0.0, 1.677707756580983E9, 0.0, 2023-03-01 13:55:56.580
154.0, 11217.513527573768, 14900.008130074517, 0.0, 0.0, 0.0, 0.0, 0.0, 0.0, -0.328, -0.8260000000000001, 0.52, 192.0, 0.0, 0.0, 0.0, 0.0, 0.0, 0.0, 0.0, 0.0, 0.0, 1.677707756589786E9, 0.0, 2023-03-01 13:55:56.589
155.0, 11215.948905461897, 14904.210258032115, 0.0, 0.0, 0.0, 0.0, 0.0, 0.0, -0.328, -0.8260000000000001, 0.52, 192.0, 0.0, 0.0, 0.0, 0.0, 0.0, 0.0, 0.0, 0.0, 0.0, 1.677707756589804E9, 0.0, 2023-03-01 13:55:56.589
156.0, 11226.27541140025, 14907.406557489225, 0.0, 0.0, 0.0, 0.0, 0.0, 0.0, -0.328, -0.8260000000000001, 0.52, 192.0, 0.0, 0.0, 0.0, 0.0, 0.0, 0.0, 0.0, 0.0, 0.0, 1.677707756596319E9, 0.0, 2023-03-01 13:55:56.596
157.0, 11224.12964393254, 14905.350196999336, 0.0, 0.0, 0.0, 0.0, 0.0, 0.0, -0.326, -0.8180000000000001, 0.522, 192.0, 245.0, 208.0, 230.0, 112.0, 16.0, 80.0, 0.0, 0.0, 0.0, 1.677707756596331E9, 0.0, 2023-03-01 13:55:56.596
158.0, 11218.564059563168, 14904.992569088052, 0.0, 0.0, 0.0, 0.0, 0.0, 0.0, -0.326, -0.8180000000000001, 0.522, 192.0, 0.0, 0.0, 0.0, 0.0, 0.0, 0.0, 0.0, 0.0, 0.0, 1.677707756604472E9, 0.0, 2023-03-01 13:55:56.604
159.0, 11220.441606097414, 14906.71365341111, 0.0, 0.0, 0.0, 0.0, 0.0, 0.0, -0.326, -0.8180000000000001, 0.522, 192.0, 0.0, 0.0, 0.0, 0.0, 0.0, 0.0, 0.0, 0.0, 0.0, 1.677707756604485E9, 0.0, 2023-03-01 13:55:56.604
160.0, 11225.627210811044, 14908.211220289615, 0.0, 0.0, 0.0, 0.0, 0.0, 0.0, -0.326, -0.8180000000000001, 0.522, 192.0, 0.0, 0.0, 0.0, 0.0, 0.0, 0.0, 0.0, 0.0, 0.0, 1.677707756611029E9, 0.0, 2023-03-01 13:55:56.611
161.0, 11223.570850321157, 14906.311322010913, 0.0, 0.0, 0.0, 0.0, 0.0, 0.0, -0.326, -0.8180000000000001, 0.522, 192.0, 0.0, 0.0, 0.0, 0.0, 0.0, 0.0, 0.0, 0.0, 0.0, 1.677707756611037E9, 0.0, 2023-03-01 13:55:56.611
162.0, 11221.045103197706, 14904.478478965579, 0.0, 0.0, 0.0, 0.0, 0.0, 0.0, -0.326, -0.8180000000000001, 0.522, 192.0, 0.0, 0.0, 0.0, 0.0, 0.0, 0.0, 0.0, 0.0, 0.0, 1.677707756618151E9, 0.0, 2023-03-01 13:55:56.618
163.0, 11225.873080000054, 14909.485269723567, 0.0, 0.0, 0.0, 0.0, 0.0, 0.0, -0.326, -0.8180000000000001, 0.522, 192.0, 0.0, 0.0, 0.0, 0.0, 0.0, 0.0, 0.0, 0.0, 0.0, 1.677707756626066E9, 0.0, 2023-03-01 13:55:56.626
164.0, 11238.255946428293, 14912.994493603052, 0.0, 0.0, 0.0, 0.0, 0.0, 0.0, -0.326, -0.8180000000000001, 0.522, 192.0, 0.0, 0.0, 0.0, 0.0, 0.0, 0.0, 0.0, 0.0, 0.0, 1.677707756626083E9, 0.0, 2023-03-01 13:55:56.626
165.0, 11237.495987116812, 14919.14122332826, 0.0, 0.0, 0.0, 0.0, 0.0, 0.0, -0.326, -0.8180000000000001, 0.522, 192.0, 0.0, 0.0, 0.0, 0.0, 0.0, 0.0, 0.0, 0.0, 0.0, 1.67770775663407E9, 0.0, 2023-03-01 13:55:56.634
166.0, 11231.729237047344, 14914.737929670566, 0.0, 0.0, 0.0, 0.0, 0.0, 0.0, -0.326, -0.8180000000000001, 0.522, 192.0, 0.0, 0.0, 0.0, 0.0, 0.0, 0.0, 0.0, 0.0, 0.0, 1.677707756634109E9, 0.0, 2023-03-01 13:55:56.634
167.0, 11232.55625159219, 14916.906048882729, 0.0, 0.0, 0.0, 0.0, 0.0, 0.0, -0.322, -0.812, 0.526, 192.0, 245.0, 240.0, 230.0, 160.0, 16.0, 112.0, 0.0, 0.0, 0.0, 1.677707756640636E9, 0.0, 2023-03-01 13:55:56.640
168.0, 11240.088789473628, 14925.6232292203, 0.0, 0.0, 0.0, 0.0, 0.0, 0.0, -0.322, -0.812, 0.526, 192.0, 0.0, 0.0, 0.0, 0.0, 0.0, 0.0, 0.0, 0.0, 0.0, 1.677707756640647E9, 0.0, 2023-03-01 13:55:56.640
169.0, 11238.568870850668, 14923.768034430508, 0.0, 0.0, 0.0, 0.0, 0.0, 0.0, -0.322, -0.812, 0.526, 192.0, 0.0, 0.0, 0.0, 0.0, 0.0, 0.0, 0.0, 0.0, 0.0, 1.677707756648642E9, 0.0, 2023-03-01 13:55:56.648
170.0, 11233.919708003963, 14922.985723374573, 0.0, 0.0, 0.0, 0.0, 0.0, 0.0, -0.322, -0.812, 0.526, 192.0, 0.0, 0.0, 0.0, 0.0, 0.0, 0.0, 0.0, 0.0, 0.0, 1.677707756648655E9, 0.0, 2023-03-01 13:55:56.648
171.0, 11230.544594591212, 14921.510508240523, 0.0, 0.0, 0.0, 0.0, 0.0, 0.0, -0.322, -0.812, 0.526, 192.0, 0.0, 0.0, 0.0, 0.0, 0.0, 0.0, 0.0, 0.0, 0.0, 1.677707756656727E9, 0.0, 2023-03-01 13:55:56.656
172.0, 11237.965373750374, 14927.679589710187, 0.0, 0.0, 0.0, 0.0, 0.0, 0.0, -0.322, -0.812, 0.526, 192.0, 0.0, 0.0, 0.0, 0.0, 0.0, 0.0, 0.0, 0.0, 0.0, 1.677707756656737E9, 0.0, 2023-03-01 13:55:56.656
173.0, 11245.252042442804, 14930.741778700565, 0.0, 0.0, 0.0, 0.0, 0.0, 0.0, -0.322, -0.812, 0.526, 192.0, 0.0, 0.0, 0.0, 0.0, 0.0, 0.0, 0.0, 0.0, 0.0, 1.677707756663842E9, 0.0, 2023-03-01 13:55:56.663
174.0, 11237.920670261463, 14926.159671087227, 0.0, 0.0, 0.0, 0.0, 0.0, 0.0, -0.322, -0.812, 0.526, 192.0, 0.0, 0.0, 0.0, 0.0, 0.0, 0.0, 0.0, 0.0, 0.0, 1.677707756663865E9, 0.0, 2023-03-01 13:55:56.663
175.0, 11234.657315570988, 14925.57852573139, 0.0, 0.0, 0.0, 0.0, 0.0, 0.0, -0.322, -0.812, 0.526, 192.0, 0.0, 0.0, 0.0, 0.0, 0.0, 0.0, 0.0, 0.0, 0.0, 1.677707756671349E9, 0.0, 2023-03-01 13:55:56.671
176.0, 11233.740894048322, 14926.71846469861, 0.0, 0.0, 0.0, 0.0, 0.0, 0.0, -0.322, -0.812, 0.526, 192.0, 0.0, 0.0, 0.0, 0.0, 0.0, 0.0, 0.0, 0.0, 0.0, 1.677707756671371E9, 0.0, 2023-03-01 13:55:56.671
177.0, 11234.74672254881, 14929.646543222254, 0.0, 0.0, 0.0, 0.0, 0.0, 0.0, -0.326, -0.8160000000000001, 0.524, 192.0, 245.0, 208.0, 230.0, 128.0, 16.0, 96.0, 0.0, 0.0, 0.0, 1.677707756678411E9, 0.0, 2023-03-01 13:55:56.678
178.0, 11233.89735625951, 14927.254906565537, 0.0, 0.0, 0.0, 0.0, 0.0, 0.0, -0.326, -0.8160000000000001, 0.524, 192.0, 0.0, 0.0, 0.0, 0.0, 0.0, 0.0, 0.0, 0.0, 0.0, 1.677707756678433E9, 0.0, 2023-03-01 13:55:56.678
179.0, 11231.282202158238, 14927.791348432464, 0.0, 0.0, 0.0, 0.0, 0.0, 0.0, -0.326, -0.8160000000000001, 0.524, 192.0, 0.0, 0.0, 0.0, 0.0, 0.0, 0.0, 0.0, 0.0, 0.0, 1.677707756686431E9, 0.0, 2023-03-01 13:55:56.686
180.0, 11235.014943482274, 14928.171328088205, 0.0, 0.0, 0.0, 0.0, 0.0, 0.0, -0.326, -0.8160000000000001, 0.524, 192.0, 0.0, 0.0, 0.0, 0.0, 0.0, 0.0, 0.0, 0.0, 0.0, 1.677707756693559E9, 0.0, 2023-03-01 13:55:56.693
181.0, 11239.082960973139, 14933.178118846194, 0.0, 0.0, 0.0, 0.0, 0.0, 0.0, -0.326, -0.8160000000000001, 0.524, 192.0, 0.0, 0.0, 0.0, 0.0, 0.0, 0.0, 0.0, 0.0, 0.0, 1.677707756693573E9, 0.0, 2023-03-01 13:55:56.693
182.0, 11238.613574339579, 14934.474520024602, 0.0, 0.0, 0.0, 0.0, 0.0, 0.0, -0.326, -0.8160000000000001, 0.524, 192.0, 0.0, 0.0, 0.0, 0.0, 0.0, 0.0, 0.0, 0.0, 0.0, 1.677707756700938E9, 0.0, 2023-03-01 13:55:56.700
183.0, 11232.533899847735, 14926.316133298415, 0.0, 0.0, 0.0, 0.0, 0.0, 0.0, -0.326, -0.8160000000000001, 0.524, 192.0, 0.0, 0.0, 0.0, 0.0, 0.0, 0.0, 0.0, 0.0, 0.0, 1.677707756700971E9, 0.0, 2023-03-01 13:55:56.700
184.0, 11234.120873704062, 14927.992514132562, 0.0, 0.0, 0.0, 0.0, 0.0, 0.0, -0.326, -0.8160000000000001, 0.524, 192.0, 0.0, 0.0, 0.0, 0.0, 0.0, 0.0, 0.0, 0.0, 0.0, 1.677707756709E9, 0.0, 2023-03-01 13:55:56.709
185.0, 11238.41240863948, 14928.551307743945, 0.0, 0.0, 0.0, 0.0, 0.0, 0.0, -0.326, -0.8160000000000001, 0.524, 192.0, 0.0, 0.0, 0.0, 0.0, 0.0, 0.0, 0.0, 0.0, 0.0, 1.677707756709025E9, 0.0, 2023-03-01 13:55:56.709
186.0, 11239.46294062888, 14928.95363914414, 0.0, 0.0, 0.0, 0.0, 0.0, 0.0, -0.326, -0.8160000000000001, 0.524, 192.0, 0.0, 0.0, 0.0, 0.0, 0.0, 0.0, 0.0, 0.0, 0.0, 1.677707756717025E9, 0.0, 2023-03-01 13:55:56.717
187.0, 11239.664106328977, 14929.311267055426, 0.0, 0.0, 0.0, 0.0, 0.0, 0.0, -0.322, -0.8240000000000001, 0.52, 192.0, 245.0, 240.0, 230.0, 64.0, 16.0, 64.0, 0.0, 0.0, 0.0, 1.677707756717054E9, 0.0, 2023-03-01 13:55:56.717
188.0, 11241.675763329955, 14932.95460140164, 0.0, 0.0, 0.0, 0.0, 0.0, 0.0, -0.322, -0.8240000000000001, 0.52, 192.0, 0.0, 0.0, 0.0, 0.0, 0.0, 0.0, 0.0, 0.0, 0.0, 1.677707756724009E9, 0.0, 2023-03-01 13:55:56.724
189.0, 11251.89051054603, 14939.391903804768, 0.0, 0.0, 0.0, 0.0, 0.0, 0.0, -0.322, -0.8240000000000001, 0.52, 192.0, 0.0, 0.0, 0.0, 0.0, 0.0, 0.0, 0.0, 0.0, 0.0, 1.677707756724024E9, 0.0, 2023-03-01 13:55:56.724
190.0, 11252.6057663686, 14942.297630583958, 0.0, 0.0, 0.0, 0.0, 0.0, 0.0, -0.322, -0.8240000000000001, 0.52, 192.0, 0.0, 0.0, 0.0, 0.0, 0.0, 0.0, 0.0, 0.0, 0.0, 1.677707756731754E9, 0.0, 2023-03-01 13:55:56.731
191.0, 11245.743780820821, 14938.855461937841, 0.0, 0.0, 0.0, 0.0, 0.0, 0.0, -0.322, -0.8240000000000001, 0.52, 192.0, 0.0, 0.0, 0.0, 0.0, 0.0, 0.0, 0.0, 0.0, 0.0, 1.677707756731765E9, 0.0, 2023-03-01 13:55:56.731
192.0, 11249.208301211394, 14940.554194516444, 0.0, 0.0, 0.0, 0.0, 0.0, 0.0, -0.322, -0.8240000000000001, 0.52, 192.0, 0.0, 0.0, 0.0, 0.0, 0.0, 0.0, 0.0, 0.0, 0.0, 1.677707756739608E9, 0.0, 2023-03-01 13:55:56.739
193.0, 11254.03627801374, 14941.761188717031, 0.0, 0.0, 0.0, 0.0, 0.0, 0.0, -0.322, -0.8240000000000001, 0.52, 192.0, 0.0, 0.0, 0.0, 0.0, 0.0, 0.0, 0.0, 0.0, 0.0, 1.677707756739622E9, 0.0, 2023-03-01 13:55:56.739
194.0, 11247.733086077344, 14940.755360216543, 0.0, 0.0, 0.0, 0.0, 0.0, 0.0, -0.322, -0.8240000000000001, 0.52, 192.0, 0.0, 0.0, 0.0, 0.0, 0.0, 0.0, 0.0, 0.0, 0.0, 1.677707756745773E9, 0.0, 2023-03-01 13:55:56.745
195.0, 11242.905109274998, 14937.402598548246, 0.0, 0.0, 0.0, 0.0, 0.0, 0.0, -0.322, -0.8240000000000001, 0.52, 192.0, 0.0, 0.0, 0.0, 0.0, 0.0, 0.0, 0.0, 0.0, 0.0, 1.677707756753118E9, 0.0, 2023-03-01 13:55:56.753
196.0, 11242.726295319355, 14937.916688670719, 0.0, 0.0, 0.0, 0.0, 0.0, 0.0, -0.322, -0.8240000000000001, 0.52, 192.0, 0.0, 0.0, 0.0, 0.0, 0.0, 0.0, 0.0, 0.0, 0.0, 1.677707756753135E9, 0.0, 2023-03-01 13:55:56.753
197.0, 11248.068362244174, 14940.218918349616, 0.0, 0.0, 0.0, 0.0, 0.0, 0.0, -0.32, -0.8260000000000001, 0.528, 192.0, 246.0, 0.0, 230.0, 48.0, 16.0, 128.0, 0.0, 0.0, 0.0, 1.677707756761223E9, 0.0, 2023-03-01 13:55:56.761
198.0, 11247.353106421604, 14940.598898005355, 0.0, 0.0, 0.0, 0.0, 0.0, 0.0, -0.32, -0.8260000000000001, 0.528, 192.0, 0.0, 0.0, 0.0, 0.0, 0.0, 0.0, 0.0, 0.0, 0.0, 1.67770775676124E9, 0.0, 2023-03-01 13:55:56.761
199.0, 11242.100446474606, 14936.977915403595, 0.0, 0.0, 0.0, 0.0, 0.0, 0.0, -0.32, -0.8260000000000001, 0.528, 192.0, 0.0, 0.0, 0.0, 0.0, 0.0, 0.0, 0.0, 0.0, 0.0, 1.677707756769271E9, 0.0, 2023-03-01 13:55:56.769
200.0, 11242.301612174704, 14933.446339779657, 0.0, 0.0, 0.0, 0.0, 0.0, 0.0, -0.32, -0.8260000000000001, 0.528, 192.0, 0.0, 0.0, 0.0, 0.0, 0.0, 0.0, 0.0, 0.0, 0.0, 1.67770775676932E9, 0.0, 2023-03-01 13:55:56.769
201.0, 11248.537748877734, 14939.593069504866, 0.0, 0.0, 0.0, 0.0, 0.0, 0.0, -0.32, -0.8260000000000001, 0.528, 192.0, 0.0, 0.0, 0.0, 0.0, 0.0, 0.0, 0.0, 0.0, 0.0, 1.67770775677589E9, 0.0, 2023-03-01 13:55:56.775
202.0, 11249.007135511296, 14940.263621838525, 0.0, 0.0, 0.0, 0.0, 0.0, 0.0, -0.32, -0.8260000000000001, 0.528, 192.0, 0.0, 0.0, 0.0, 0.0, 0.0, 0.0, 0.0, 0.0, 0.0, 1.677707756775902E9, 0.0, 2023-03-01 13:55:56.775
203.0, 11242.949812763907, 14938.743703215565, 0.0, 0.0, 0.0, 0.0, 0.0, 0.0, -0.32, -0.8260000000000001, 0.528, 192.0, 0.0, 0.0, 0.0, 0.0, 0.0, 0.0, 0.0, 0.0, 0.0, 1.677707756783915E9, 0.0, 2023-03-01 13:55:56.783
204.0, 11238.74768480631, 14936.91086017023, 0.0, 0.0, 0.0, 0.0, 0.0, 0.0, -0.32, -0.8260000000000001, 0.528, 192.0, 0.0, 0.0, 0.0, 0.0, 0.0, 0.0, 0.0, 0.0, 0.0, 1.67770775678393E9, 0.0, 2023-03-01 13:55:56.783
205.0, 11239.261774928782, 14933.71456071312, 0.0, 0.0, 0.0, 0.0, 0.0, 0.0, -0.32, -0.8260000000000001, 0.528, 192.0, 0.0, 0.0, 0.0, 0.0, 0.0, 0.0, 0.0, 0.0, 0.0, 1.677707756791952E9, 0.0, 2023-03-01 13:55:56.791
206.0, 11245.028524998252, 14934.943906658162, 0.0, 0.0, 0.0, 0.0, 0.0, 0.0, -0.32, -0.8260000000000001, 0.528, 192.0, 0.0, 0.0, 0.0, 0.0, 0.0, 0.0, 0.0, 0.0, 0.0, 1.677707756791961E9, 0.0, 2023-03-01 13:55:56.791
207.0, 11241.116969718572, 14933.893374668763, 0.0, 0.0, 0.0, 0.0, 0.0, 0.0, -0.32, -0.8260000000000001, 0.528, 192.0, 0.0, 0.0, 0.0, 0.0, 0.0, 0.0, 0.0, 0.0, 0.0, 1.677707756799047E9, 0.0, 2023-03-01 13:55:56.799
208.0, 11236.534862105234, 14933.871022924308, 0.0, 0.0, 0.0, 0.0, 0.0, 0.0, -0.314, -0.8240000000000001, 0.526, 192.0, 246.0, 48.0, 230.0, 64.0, 16.0, 112.0, 0.0, 0.0, 0.0, 1.67770775679908E9, 0.0, 2023-03-01 13:55:56.799
209.0, 11242.368667408069, 14938.140206115271, 0.0, 0.0, 0.0, 0.0, 0.0, 0.0, -0.314, -0.8240000000000001, 0.526, 192.0, 0.0, 0.0, 0.0, 0.0, 0.0, 0.0, 0.0, 0.0, 0.0, 1.677707756805415E9, 0.0, 2023-03-01 13:55:56.805
210.0, 11244.670897086966, 14939.86129043833, 0.0, 0.0, 0.0, 0.0, 0.0, 0.0, -0.314, -0.8240000000000001, 0.526, 192.0, 0.0, 0.0, 0.0, 0.0, 0.0, 0.0, 0.0, 0.0, 0.0, 1.677707756813701E9, 0.0, 2023-03-01 13:55:56.813
211.0, 11246.056705243196, 14944.130473629293, 0.0, 0.0, 0.0, 0.0, 0.0, 0.0, -0.314, -0.8240000000000001, 0.526, 192.0, 0.0, 0.0, 0.0, 0.0, 0.0, 0.0, 0.0, 0.0, 0.0, 1.677707756813719E9, 0.0, 2023-03-01 13:55:56.813
212.0, 11241.854577285598, 14941.448264294657, 0.0, 0.0, 0.0, 0.0, 0.0, 0.0, -0.314, -0.8240000000000001, 0.526, 192.0, 0.0, 0.0, 0.0, 0.0, 0.0, 0.0, 0.0, 0.0, 0.0, 1.677707756821555E9, 0.0, 2023-03-01 13:55:56.821
213.0, 11239.7535133068, 14934.586278746878, 0.0, 0.0, 0.0, 0.0, 0.0, 0.0, -0.314, -0.8240000000000001, 0.526, 192.0, 0.0, 0.0, 0.0, 0.0, 0.0, 0.0, 0.0, 0.0, 0.0, 1.677707756821566E9, 0.0, 2023-03-01 13:55:56.821
214.0, 11247.978955266351, 14936.91086017023, 0.0, 0.0, 0.0, 0.0, 0.0, 0.0, -0.314, -0.8240000000000001, 0.526, 192.0, 0.0, 0.0, 0.0, 0.0, 0.0, 0.0, 0.0, 0.0, 0.0, 1.677707756828652E9, 0.0, 2023-03-01 13:55:56.828
215.0, 11243.41919939747, 14933.066360123918, 0.0, 0.0, 0.0, 0.0, 0.0, 0.0, -0.314, -0.8240000000000001, 0.526, 192.0, 0.0, 0.0, 0.0, 0.0, 0.0, 0.0, 0.0, 0.0, 0.0, 1.677707756828667E9, 0.0, 2023-03-01 13:55:56.828
216.0, 11234.836129526631, 14930.138281600272, 0.0, 0.0, 0.0, 0.0, 0.0, 0.0, -0.314, -0.8240000000000001, 0.526, 192.0, 0.0, 0.0, 0.0, 0.0, 0.0, 0.0, 0.0, 0.0, 0.0, 1.677707756836219E9, 0.0, 2023-03-01 13:55:56.836
217.0, 11234.612612082079, 14929.825357177897, 0.0, 0.0, 0.0, 0.0, 0.0, 0.0, -0.314, -0.8240000000000001, 0.526, 192.0, 0.0, 0.0, 0.0, 0.0, 0.0, 0.0, 0.0, 0.0, 0.0, 1.677707756836228E9, 0.0, 2023-03-01 13:55:56.836
218.0, 11239.172367950961, 14930.875889167297, 0.0, 0.0, 0.0, 0.0, 0.0, 0.0, -0.322, -0.8280000000000001, 0.524, 192.0, 245.0, 240.0, 230.0, 32.0, 16.0, 96.0, 0.0, 0.0, 0.0, 1.677707756844199E9, 0.0, 2023-03-01 13:55:56.844
219.0, 11235.685495815933, 14927.120796098805, 0.0, 0.0, 0.0, 0.0, 0.0, 0.0, -0.322, -0.8280000000000001, 0.524, 192.0, 0.0, 0.0, 0.0, 0.0, 0.0, 0.0, 0.0, 0.0, 0.0, 1.677707756844221E9, 0.0, 2023-03-01 13:55:56.844
220.0, 11230.589298080124, 14924.393883275257, 0.0, 0.0, 0.0, 0.0, 0.0, 0.0, -0.322, -0.8280000000000001, 0.524, 192.0, 0.0, 0.0, 0.0, 0.0, 0.0, 0.0, 0.0, 0.0, 0.0, 1.677707756852675E9, 0.0, 2023-03-01 13:55:56.852
221.0, 11229.248193412805, 14922.739854185565, 0.0, 0.0, 0.0, 0.0, 0.0, 0.0, -0.322, -0.8280000000000001, 0.524, 192.0, 0.0, 0.0, 0.0, 0.0, 0.0, 0.0, 0.0, 0.0, 0.0, 1.67770775685269E9, 0.0, 2023-03-01 13:55:56.852
222.0, 11237.652449328, 14929.803005433441, 0.0, 0.0, 0.0, 0.0, 0.0, 0.0, -0.322, -0.8280000000000001, 0.524, 192.0, 0.0, 0.0, 0.0, 0.0, 0.0, 0.0, 0.0, 0.0, 0.0, 1.677707756858868E9, 0.0, 2023-03-01 13:55:56.858
223.0, 11239.641754584522, 14930.160633344727, 0.0, 0.0, 0.0, 0.0, 0.0, 0.0, -0.322, -0.8280000000000001, 0.524, 192.0, 0.0, 0.0, 0.0, 0.0, 0.0, 0.0, 0.0, 0.0, 0.0, 1.677707756858882E9, 0.0, 2023-03-01 13:55:56.858
224.0, 11235.640792327022, 14928.528955999489, 0.0, 0.0, 0.0, 0.0, 0.0, 0.0, -0.322, -0.8280000000000001, 0.524, 192.0, 0.0, 0.0, 0.0, 0.0, 0.0, 0.0, 0.0, 0.0, 0.0, 1.677707756866013E9, 0.0, 2023-03-01 13:55:56.866
225.0, 11228.13060619004, 14924.170365830705, 0.0, 0.0, 0.0, 0.0, 0.0, 0.0, -0.322, -0.8280000000000001, 0.524, 192.0, 0.0, 0.0, 0.0, 0.0, 0.0, 0.0, 0.0, 0.0, 0.0, 1.677707756873803E9, 0.0, 2023-03-01 13:55:56.873
226.0, 11235.685495815933, 14929.870060666808, 0.0, 0.0, 0.0, 0.0, 0.0, 0.0, -0.322, -0.8280000000000001, 0.524, 192.0, 0.0, 0.0, 0.0, 0.0, 0.0, 0.0, 0.0, 0.0, 0.0, 1.677707756873816E9, 0.0, 2023-03-01 13:55:56.873
227.0, 11241.452245885403, 14928.596011232856, 0.0, 0.0, 0.0, 0.0, 0.0, 0.0, -0.322, -0.8280000000000001, 0.524, 192.0, 0.0, 0.0, 0.0, 0.0, 0.0, 0.0, 0.0, 0.0, 0.0, 1.677707756881849E9, 0.0, 2023-03-01 13:55:56.881
228.0, 11233.293859159216, 14924.215069319614, 0.0, 0.0, 0.0, 0.0, 0.0, 0.0, -0.318, -0.8260000000000001, 0.528, 192.0, 246.0, 16.0, 230.0, 48.0, 16.0, 128.0, 0.0, 0.0, 0.0, 1.677707756881861E9, 0.0, 2023-03-01 13:55:56.881
229.0, 11228.823510268154, 14918.582429716878, 0.0, 0.0, 0.0, 0.0, 0.0, 0.0, -0.318, -0.8260000000000001, 0.528, 192.0, 0.0, 0.0, 0.0, 0.0, 0.0, 0.0, 0.0, 0.0, 0.0, 1.67770775688847E9, 0.0, 2023-03-01 13:55:56.888
230.0, 11228.577641079146, 14920.661141951221, 0.0, 0.0, 0.0, 0.0, 0.0, 0.0, -0.318, -0.8260000000000001, 0.528, 192.0, 0.0, 0.0, 0.0, 0.0, 0.0, 0.0, 0.0, 0.0, 0.0, 1.677707756888487E9, 0.0, 2023-03-01 13:55:56.888
231.0, 11236.624269083057, 14923.298647796948, 0.0, 0.0, 0.0, 0.0, 0.0, 0.0, -0.318, -0.8260000000000001, 0.528, 192.0, 0.0, 0.0, 0.0, 0.0, 0.0, 0.0, 0.0, 0.0, 0.0, 1.677707756896452E9, 0.0, 2023-03-01 13:55:56.896
232.0, 11231.975106236352, 14917.911877383218, 0.0, 0.0, 0.0, 0.0, 0.0, 0.0, -0.318, -0.8260000000000001, 0.528, 192.0, 0.0, 0.0, 0.0, 0.0, 0.0, 0.0, 0.0, 0.0, 0.0, 1.677707756896469E9, 0.0, 2023-03-01 13:55:56.896
233.0, 11232.444492869914, 14922.896316396753, 0.0, 0.0, 0.0, 0.0, 0.0, 0.0, -0.318, -0.8260000000000001, 0.528, 192.0, 0.0, 0.0, 0.0, 0.0, 0.0, 0.0, 0.0, 0.0, 0.0, 1.677707756904454E9, 0.0, 2023-03-01 13:55:56.904
234.0, 11237.69715281691, 14924.796214675453, 0.0, 0.0, 0.0, 0.0, 0.0, 0.0, -0.318, -0.8260000000000001, 0.528, 192.0, 0.0, 0.0, 0.0, 0.0, 0.0, 0.0, 0.0, 0.0, 0.0, 1.67770775690447E9, 0.0, 2023-03-01 13:55:56.904
235.0, 11237.160710949984, 14925.802043175941, 0.0, 0.0, 0.0, 0.0, 0.0, 0.0, -0.318, -0.8260000000000001, 0.528, 192.0, 0.0, 0.0, 0.0, 0.0, 0.0, 0.0, 0.0, 0.0, 0.0, 1.677707756911523E9, 0.0, 2023-03-01 13:55:56.911
236.0, 11235.819606282665, 14924.66210420872, 0.0, 0.0, 0.0, 0.0, 0.0, 0.0, -0.318, -0.8260000000000001, 0.528, 192.0, 0.0, 0.0, 0.0, 0.0, 0.0, 0.0, 0.0, 0.0, 0.0, 1.677707756911544E9, 0.0, 2023-03-01 13:55:56.911
237.0, 11228.801158523698, 14924.259772808526, 0.0, 0.0, 0.0, 0.0, 0.0, 0.0, -0.318, -0.8260000000000001, 0.528, 192.0, 0.0, 0.0, 0.0, 0.0, 0.0, 0.0, 0.0, 0.0, 0.0, 1.677707756919059E9, 0.0, 2023-03-01 13:55:56.919
238.0, 11230.879870758043, 14923.946848386151, 0.0, 0.0, 0.0, 0.0, 0.0, 0.0, -0.306, -0.8140000000000001, 0.54, 192.0, 246.0, 112.0, 230.0, 144.0, 16.0, 224.0, 0.0, 0.0, 0.0, 1.677707756919082E9, 0.0, 2023-03-01 13:55:56.919
239.0, 11241.876929030053, 14929.043046121962, 0.0, 0.0, 0.0, 0.0, 0.0, 0.0, -0.306, -0.8140000000000001, 0.54, 192.0, 0.0, 0.0, 0.0, 0.0, 0.0, 0.0, 0.0, 0.0, 0.0, 1.67770775692618E9, 0.0, 2023-03-01 13:55:56.926
240.0, 11242.346315663615, 14929.355970544335, 0.0, 0.0, 0.0, 0.0, 0.0, 0.0, -0.306, -0.8140000000000001, 0.54, 192.0, 0.0, 0.0, 0.0, 0.0, 0.0, 0.0, 0.0, 0.0, 0.0, 1.677707756926205E9, 0.0, 2023-03-01 13:55:56.926
241.0, 11237.741856305822, 14931.166461845216, 0.0, 0.0, 0.0, 0.0, 0.0, 0.0, -0.306, -0.8140000000000001, 0.54, 192.0, 0.0, 0.0, 0.0, 0.0, 0.0, 0.0, 0.0, 0.0, 0.0, 1.677707756934114E9, 0.0, 2023-03-01 13:55:56.934
242.0, 11232.869176014565, 14927.970162388106, 0.0, 0.0, 0.0, 0.0, 0.0, 0.0, -0.306, -0.8140000000000001, 0.54, 192.0, 0.0, 0.0, 0.0, 0.0, 0.0, 0.0, 0.0, 0.0, 0.0, 1.677707756940754E9, 0.0, 2023-03-01 13:55:56.940
243.0, 11235.394923138014, 14927.81370017692, 0.0, 0.0, 0.0, 0.0, 0.0, 0.0, -0.306, -0.8140000000000001, 0.54, 192.0, 0.0, 0.0, 0.0, 0.0, 0.0, 0.0, 0.0, 0.0, 0.0, 1.677707756940778E9, 0.0, 2023-03-01 13:55:56.940
244.0, 11232.511548103279, 14925.779691431486, 0.0, 0.0, 0.0, 0.0, 0.0, 0.0, -0.306, -0.8140000000000001, 0.54, 192.0, 0.0, 0.0, 0.0, 0.0, 0.0, 0.0, 0.0, 0.0, 0.0, 1.677707756949295E9, 0.0, 2023-03-01 13:55:56.949
245.0, 11226.811853267176, 14923.052778607938, 0.0, 0.0, 0.0, 0.0, 0.0, 0.0, -0.306, -0.8140000000000001, 0.54, 192.0, 0.0, 0.0, 0.0, 0.0, 0.0, 0.0, 0.0, 0.0, 0.0, 1.677707756949313E9, 0.0, 2023-03-01 13:55:56.949
246.0, 11223.257925898783, 14919.632961706277, 0.0, 0.0, 0.0, 0.0, 0.0, 0.0, -0.306, -0.8140000000000001, 0.54, 192.0, 0.0, 0.0, 0.0, 0.0, 0.0, 0.0, 0.0, 0.0, 0.0, 1.67770775695674E9, 0.0, 2023-03-01 13:55:56.956
247.0, 11225.113120688573, 14921.108176840327, 0.0, 0.0, 0.0, 0.0, 0.0, 0.0, -0.306, -0.8140000000000001, 0.54, 192.0, 0.0, 0.0, 0.0, 0.0, 0.0, 0.0, 0.0, 0.0, 0.0, 1.677707756956754E9, 0.0, 2023-03-01 13:55:56.956
248.0, 11227.929440489941, 14925.422063520202, 0.0, 0.0, 0.0, 0.0, 0.0, 0.0, -0.292, -0.8140000000000001, 0.54, 192.0, 246.0, 224.0, 230.0, 144.0, 16.0, 224.0, 0.0, 0.0, 0.0, 1.677707756963739E9, 0.0, 2023-03-01 13:55:56.963
249.0, 11225.001361966297, 14922.38222627428, 0.0, 0.0, 0.0, 0.0, 0.0, 0.0, -0.292, -0.8140000000000001, 0.54, 192.0, 0.0, 0.0, 0.0, 0.0, 0.0, 0.0, 0.0, 0.0, 0.0, 1.677707756963753E9, 0.0, 2023-03-01 13:55:56.963
250.0, 11222.006228209286, 14920.437624506669, 0.0, 0.0, 0.0, 0.0, 0.0, 0.0, -0.292, -0.8140000000000001, 0.54, 192.0, 0.0, 0.0, 0.0, 0.0, 0.0, 0.0, 0.0, 0.0, 0.0, 1.677707756971215E9, 0.0, 2023-03-01 13:55:56.971
251.0, 11226.521280589257, 14919.81177566192, 0.0, 0.0, 0.0, 0.0, 0.0, 0.0, -0.292, -0.8140000000000001, 0.54, 192.0, 0.0, 0.0, 0.0, 0.0, 0.0, 0.0, 0.0, 0.0, 0.0, 1.677707756971238E9, 0.0, 2023-03-01 13:55:56.971
252.0, 11233.60678358159, 14922.449281507646, 0.0, 0.0, 0.0, 0.0, 0.0, 0.0, -0.292, -0.8140000000000001, 0.54, 192.0, 0.0, 0.0, 0.0, 0.0, 0.0, 0.0, 0.0, 0.0, 0.0, 1.677707756979399E9, 0.0, 2023-03-01 13:55:56.979
253.0, 11233.003286481297, 14924.796214675453, 0.0, 0.0, 0.0, 0.0, 0.0, 0.0, -0.292, -0.8140000000000001, 0.54, 192.0, 0.0, 0.0, 0.0, 0.0, 0.0, 0.0, 0.0, 0.0, 0.0, 1.677707756979418E9, 0.0, 2023-03-01 13:55:56.979
254.0, 11229.427007368447, 14924.125662341794, 0.0, 0.0, 0.0, 0.0, 0.0, 0.0, -0.292, -0.8140000000000001, 0.54, 192.0, 0.0, 0.0, 0.0, 0.0, 0.0, 0.0, 0.0, 0.0, 0.0, 1.677707756990305E9, 0.0, 2023-03-01 13:55:56.990
255.0, 11229.27054515726, 14925.131490842283, 0.0, 0.0, 0.0, 0.0, 0.0, 0.0, -0.292, -0.8140000000000001, 0.54, 192.0, 0.0, 0.0, 0.0, 0.0, 0.0, 0.0, 0.0, 0.0, 0.0, 1.677707756990325E9, 0.0, 2023-03-01 13:55:56.990
0.0, 11233.450321370403, 14926.629057720787, 0.0, 0.0, 0.0, 0.0, 0.0, 0.0, -0.292, -0.8140000000000001, 0.54, 192.0, 0.0, 0.0, 0.0, 0.0, 0.0, 0.0, 0.0, 0.0, 0.0, 1.677707756996386E9, 0.0, 2023-03-01 13:55:56.996
1.0, 11230.008152724286, 14924.349179786346, 0.0, 0.0, 0.0, 0.0, 0.0, 0.0, -0.292, -0.8140000000000001, 0.54, 192.0, 0.0, 0.0, 0.0, 0.0, 0.0, 0.0, 0.0, 0.0, 0.0, 1.677707757002535E9, 0.0, 2023-03-01 13:55:57.002
2.0, 11230.254021913293, 14923.186889074672, 0.0, 0.0, 0.0, 0.0, 0.0, 0.0, -0.292, -0.808, 0.542, 192.0, 246.0, 224.0, 230.0, 192.0, 16.0, 240.0, 0.0, 0.0, 0.0, 1.677707757002551E9, 0.0, 2023-03-01 13:55:57.002
3.0, 11228.979972479341, 14921.130528584783, 0.0, 0.0, 0.0, 0.0, 0.0, 0.0, -0.292, -0.808, 0.542, 192.0, 0.0, 0.0, 0.0, 0.0, 0.0, 0.0, 0.0, 0.0, 0.0, 1.677707757008989E9, 0.0, 2023-03-01 13:55:57.008
4.0, 11236.825434783153, 14925.533822242478, 0.0, 0.0, 0.0, 0.0, 0.0, 0.0, -0.292, -0.808, 0.542, 192.0, 0.0, 0.0, 0.0, 0.0, 0.0, 0.0, 0.0, 0.0, 0.0, 1.677707757008998E9, 0.0, 2023-03-01 13:55:57.008
5.0, 11234.299687659704, 14921.108176840327, 0.0, 0.0, 0.0, 0.0, 0.0, 0.0, -0.292, -0.808, 0.542, 192.0, 0.0, 0.0, 0.0, 0.0, 0.0, 0.0, 0.0, 0.0, 0.0, 1.677707757016936E9, 0.0, 2023-03-01 13:55:57.016
6.0, 11229.337600390625, 14920.14705182875, 0.0, 0.0, 0.0, 0.0, 0.0, 0.0, -0.292, -0.808, 0.542, 192.0, 0.0, 0.0, 0.0, 0.0, 0.0, 0.0, 0.0, 0.0, 0.0, 1.67770775701695E9, 0.0, 2023-03-01 13:55:57.016
7.0, 11230.924574246952, 14922.80690941893, 0.0, 0.0, 0.0, 0.0, 0.0, 0.0, -0.292, -0.808, 0.542, 192.0, 0.0, 0.0, 0.0, 0.0, 0.0, 0.0, 0.0, 0.0, 0.0, 1.677707757023522E9, 0.0, 2023-03-01 13:55:57.023
8.0, 11240.111141218084, 14929.266563566514, 0.0, 0.0, 0.0, 0.0, 0.0, 0.0, -0.292, -0.808, 0.542, 192.0, 0.0, 0.0, 0.0, 0.0, 0.0, 0.0, 0.0, 0.0, 0.0, 1.677707757023545E9, 0.0, 2023-03-01 13:55:57.023
9.0, 11233.942059748419, 14926.852575165341, 0.0, 0.0, 0.0, 0.0, 0.0, 0.0, -0.292, -0.808, 0.542, 192.0, 0.0, 0.0, 0.0, 0.0, 0.0, 0.0, 0.0, 0.0, 0.0, 1.67770775703163E9, 0.0, 2023-03-01 13:55:57.031
10.0, 11230.812815524676, 14924.751511186543, 0.0, 0.0, 0.0, 0.0, 0.0, 0.0, -0.292, -0.808, 0.542, 192.0, 0.0, 0.0, 0.0, 0.0, 0.0, 0.0, 0.0, 0.0, 0.0, 1.677707757031645E9, 0.0, 2023-03-01 13:55:57.031
11.0, 11229.583469579635, 14922.203412318637, 0.0, 0.0, 0.0, 0.0, 0.0, 0.0, -0.292, -0.808, 0.542, 192.0, 0.0, 0.0, 0.0, 0.0, 0.0, 0.0, 0.0, 0.0, 0.0, 1.677707757039613E9, 0.0, 2023-03-01 13:55:57.039
12.0, 11232.55625159219, 14925.220897820103, 0.0, 0.0, 0.0, 0.0, 0.0, 0.0, -0.306, -0.8140000000000001, 0.544, 192.0, 246.0, 112.0, 230.0, 144.0, 17.0, 0.0, 0.0, 0.0, 0.0, 1.677707757039631E9, 0.0, 2023-03-01 13:55:57.039
13.0, 11235.193757437917, 14922.158708829727, 0.0, 0.0, 0.0, 0.0, 0.0, 0.0, -0.306, -0.8140000000000001, 0.544, 192.0, 0.0, 0.0, 0.0, 0.0, 0.0, 0.0, 0.0, 0.0, 0.0, 1.677707757046692E9, 0.0, 2023-03-01 13:55:57.046
14.0, 11228.55528933469, 14915.073205837394, 0.0, 0.0, 0.0, 0.0, 0.0, 0.0, -0.306, -0.8140000000000001, 0.544, 192.0, 0.0, 0.0, 0.0, 0.0, 0.0, 0.0, 0.0, 0.0, 0.0, 1.677707757046706E9, 0.0, 2023-03-01 13:55:57.046
15.0, 11226.007190466786, 14916.436662249169, 0.0, 0.0, 0.0, 0.0, 0.0, 0.0, -0.306, -0.8140000000000001, 0.544, 192.0, 0.0, 0.0, 0.0, 0.0, 0.0, 0.0, 0.0, 0.0, 0.0, 1.677707757053199E9, 0.0, 2023-03-01 13:55:57.053
16.0, 11223.727312532345, 14913.419176747702, 0.0, 0.0, 0.0, 0.0, 0.0, 0.0, -0.306, -0.8140000000000001, 0.544, 192.0, 0.0, 0.0, 0.0, 0.0, 0.0, 0.0, 0.0, 0.0, 0.0, 1.677707757061622E9, 0.0, 2023-03-01 13:55:57.061
17.0, 11225.806024766687, 14914.201487803637, 0.0, 0.0, 0.0, 0.0, 0.0, 0.0, -0.306, -0.8140000000000001, 0.544, 192.0, 0.0, 0.0, 0.0, 0.0, 0.0, 0.0, 0.0, 0.0, 0.0, 1.677707757061646E9, 0.0, 2023-03-01 13:55:57.061
18.0, 11219.256963641283, 14909.529973212479, 0.0, 0.0, 0.0, 0.0, 0.0, 0.0, -0.306, -0.8140000000000001, 0.544, 192.0, 0.0, 0.0, 0.0, 0.0, 0.0, 0.0, 0.0, 0.0, 0.0, 1.677707757069389E9, 0.0, 2023-03-01 13:55:57.069
19.0, 11219.592239808111, 14910.692263924155, 0.0, 0.0, 0.0, 0.0, 0.0, 0.0, -0.306, -0.8140000000000001, 0.544, 192.0, 0.0, 0.0, 0.0, 0.0, 0.0, 0.0, 0.0, 0.0, 0.0, 1.677707757069404E9, 0.0, 2023-03-01 13:55:57.069
20.0, 11225.113120688573, 14914.134432570272, 0.0, 0.0, 0.0, 0.0, 0.0, 0.0, -0.306, -0.8140000000000001, 0.544, 192.0, 0.0, 0.0, 0.0, 0.0, 0.0, 0.0, 0.0, 0.0, 0.0, 1.677707757077722E9, 0.0, 2023-03-01 13:55:57.077
21.0, 11231.93040274744, 14918.627133205788, 0.0, 0.0, 0.0, 0.0, 0.0, 0.0, -0.306, -0.8140000000000001, 0.544, 192.0, 0.0, 0.0, 0.0, 0.0, 0.0, 0.0, 0.0, 0.0, 0.0, 1.677707757077742E9, 0.0, 2023-03-01 13:55:57.077
22.0, 11228.801158523698, 14917.375435516291, 0.0, 0.0, 0.0, 0.0, 0.0, 0.0, -0.306, -0.8140000000000001, 0.544, 192.0, 0.0, 0.0, 0.0, 0.0, 0.0, 0.0, 0.0, 0.0, 0.0, 1.677707757083888E9, 0.0, 2023-03-01 13:55:57.083
23.0, 11226.029542211241, 14916.727234927088, 0.0, 0.0, 0.0, 0.0, 0.0, 0.0, -0.304, -0.8140000000000001, 0.548, 192.0, 246.0, 128.0, 230.0, 144.0, 17.0, 32.0, 0.0, 0.0, 0.0, 1.6777077570839E9, 0.0, 2023-03-01 13:55:57.083
24.0, 11232.399789381003, 14924.170365830705, 0.0, 0.0, 0.0, 0.0, 0.0, 0.0, -0.304, -0.8140000000000001, 0.548, 192.0, 0.0, 0.0, 0.0, 0.0, 0.0, 0.0, 0.0, 0.0, 0.0, 1.677707757091961E9, 0.0, 2023-03-01 13:55:57.091
25.0, 11236.288992916227, 14926.249078065048, 0.0, 0.0, 0.0, 0.0, 0.0, 0.0, -0.304, -0.8140000000000001, 0.548, 192.0, 0.0, 0.0, 0.0, 0.0, 0.0, 0.0, 0.0, 0.0, 0.0, 1.677707757091976E9, 0.0, 2023-03-01 13:55:57.091
26.0, 11231.863347514076, 14923.47746175259, 0.0, 0.0, 0.0, 0.0, 0.0, 0.0, -0.304, -0.8140000000000001, 0.548, 192.0, 0.0, 0.0, 0.0, 0.0, 0.0, 0.0, 0.0, 0.0, 0.0, 1.67770775709975E9, 0.0, 2023-03-01 13:55:57.099
27.0, 11227.035370711728, 14920.012941362018, 0.0, 0.0, 0.0, 0.0, 0.0, 0.0, -0.304, -0.8140000000000001, 0.548, 192.0, 0.0, 0.0, 0.0, 0.0, 0.0, 0.0, 0.0, 0.0, 0.0, 1.677707757099761E9, 0.0, 2023-03-01 13:55:57.099
28.0, 11228.376475379047, 14921.488156496067, 0.0, 0.0, 0.0, 0.0, 0.0, 0.0, -0.304, -0.8140000000000001, 0.548, 192.0, 0.0, 0.0, 0.0, 0.0, 0.0, 0.0, 0.0, 0.0, 0.0, 1.67770775710644E9, 0.0, 2023-03-01 13:55:57.106
29.0, 11234.41144638198, 14927.903107154742, 0.0, 0.0, 0.0, 0.0, 0.0, 0.0, -0.304, -0.8140000000000001, 0.548, 192.0, 0.0, 0.0, 0.0, 0.0, 0.0, 0.0, 0.0, 0.0, 0.0, 1.677707757106458E9, 0.0, 2023-03-01 13:55:57.106
30.0, 11232.22097542536, 14927.277258309992, 0.0, 0.0, 0.0, 0.0, 0.0, 0.0, -0.304, -0.8140000000000001, 0.548, 192.0, 0.0, 0.0, 0.0, 0.0, 0.0, 0.0, 0.0, 0.0, 0.0, 1.67770775711342E9, 0.0, 2023-03-01 13:55:57.113
31.0, 11228.197661423404, 14925.332656542381, 0.0, 0.0, 0.0, 0.0, 0.0, 0.0, -0.304, -0.8140000000000001, 0.548, 192.0, 0.0, 0.0, 0.0, 0.0, 0.0, 0.0, 0.0, 0.0, 0.0, 1.677707757121643E9, 0.0, 2023-03-01 13:55:57.121
32.0, 11231.371609136058, 14929.244211822059, 0.0, 0.0, 0.0, 0.0, 0.0, 0.0, -0.304, -0.8140000000000001, 0.548, 192.0, 0.0, 0.0, 0.0, 0.0, 0.0, 0.0, 0.0, 0.0, 0.0, 1.67770775712166E9, 0.0, 2023-03-01 13:55:57.121
33.0, 11237.004248738796, 14932.887546168275, 0.0, 0.0, 0.0, 0.0, 0.0, 0.0, -0.31, -0.808, 0.546, 192.0, 246.0, 80.0, 230.0, 192.0, 17.0, 16.0, 0.0, 0.0, 0.0, 1.677707757129682E9, 0.0, 2023-03-01 13:55:57.129
34.0, 11238.345353406115, 14929.534784499978, 0.0, 0.0, 0.0, 0.0, 0.0, 0.0, -0.31, -0.808, 0.546, 192.0, 0.0, 0.0, 0.0, 0.0, 0.0, 0.0, 0.0, 0.0, 0.0, 1.677707757129699E9, 0.0, 2023-03-01 13:55:57.129
35.0, 11234.500853359801, 14927.85840366583, 0.0, 0.0, 0.0, 0.0, 0.0, 0.0, -0.31, -0.808, 0.546, 192.0, 0.0, 0.0, 0.0, 0.0, 0.0, 0.0, 0.0, 0.0, 0.0, 1.67770775713756E9, 0.0, 2023-03-01 13:55:57.137
36.0, 11236.55721384969, 14929.847708922352, 0.0, 0.0, 0.0, 0.0, 0.0, 0.0, -0.31, -0.808, 0.546, 192.0, 0.0, 0.0, 0.0, 0.0, 0.0, 0.0, 0.0, 0.0, 0.0, 1.677707757137573E9, 0.0, 2023-03-01 13:55:57.137
37.0, 11246.950775021407, 14937.760226459532, 0.0, 0.0, 0.0, 0.0, 0.0, 0.0, -0.31, -0.808, 0.546, 192.0, 0.0, 0.0, 0.0, 0.0, 0.0, 0.0, 0.0, 0.0, 0.0, 1.677707757146034E9, 0.0, 2023-03-01 13:55:57.146
38.0, 11249.431818655947, 14939.011924149028, 0.0, 0.0, 0.0, 0.0, 0.0, 0.0, -0.31, -0.808, 0.546, 192.0, 0.0, 0.0, 0.0, 0.0, 0.0, 0.0, 0.0, 0.0, 0.0, 1.677707757146042E9, 0.0, 2023-03-01 13:55:57.146
39.0, 11243.5533098642, 14933.66985722421, 0.0, 0.0, 0.0, 0.0, 0.0, 0.0, -0.31, -0.808, 0.546, 192.0, 0.0, 0.0, 0.0, 0.0, 0.0, 0.0, 0.0, 0.0, 0.0, 1.677707757153557E9, 0.0, 2023-03-01 13:55:57.153
40.0, 11237.764208050277, 14930.853537422841, 0.0, 0.0, 0.0, 0.0, 0.0, 0.0, -0.31, -0.808, 0.546, 192.0, 0.0, 0.0, 0.0, 0.0, 0.0, 0.0, 0.0, 0.0, 0.0, 1.677707757153578E9, 0.0, 2023-03-01 13:55:57.153
41.0, 11239.977030751352, 14929.981819389084, 0.0, 0.0, 0.0, 0.0, 0.0, 0.0, -0.31, -0.808, 0.546, 192.0, 0.0, 0.0, 0.0, 0.0, 0.0, 0.0, 0.0, 0.0, 0.0, 1.677707757160665E9, 0.0, 2023-03-01 13:55:57.160
42.0, 11240.64758308501, 14929.154804844238, 0.0, 0.0, 0.0, 0.0, 0.0, 0.0, -0.31, -0.808, 0.546, 192.0, 0.0, 0.0, 0.0, 0.0, 0.0, 0.0, 0.0, 0.0, 0.0, 1.677707757160683E9, 0.0, 2023-03-01 13:55:57.160
43.0, 11232.489196358823, 14924.23742106407, 0.0, 0.0, 0.0, 0.0, 0.0, 0.0, -0.308, -0.808, 0.546, 192.0, 246.0, 96.0, 230.0, 192.0, 17.0, 16.0, 0.0, 0.0, 0.0, 1.67770775716685E9, 0.0, 2023-03-01 13:55:57.166
44.0, 11228.778806779243, 14922.00224661854, 0.0, 0.0, 0.0, 0.0, 0.0, 0.0, -0.308, -0.808, 0.546, 192.0, 0.0, 0.0, 0.0, 0.0, 0.0, 0.0, 0.0, 0.0, 0.0, 1.677707757166869E9, 0.0, 2023-03-01 13:55:57.166
45.0, 11228.64469631251, 14919.297685539448, 0.0, 0.0, 0.0, 0.0, 0.0, 0.0, -0.308, -0.808, 0.546, 192.0, 0.0, 0.0, 0.0, 0.0, 0.0, 0.0, 0.0, 0.0, 0.0, 1.67770775717387E9, 0.0, 2023-03-01 13:55:57.173
