%OpenBCI Raw EEG Data
%Number of channels = 8
%Sample Rate = 250 Hz
%Board = OpenBCI_GUI$BoardCytonSerial
Sample Index, EXG Channel 0, EXG Channel 1, EXG Channel 2, EXG Channel 3, EXG Channel 4, EXG Channel 5, EXG Channel 6, EXG Channel 7, Accel Channel 0, Accel Channel 1, Accel Channel 2, Other, Other, Other, Other, Other, Other, Other, Analog Channel 0, Analog Channel 1, Analog Channel 2, Timestamp, Other, Timestamp (Formatted)
193.0, 11490.60714132871, 15820.251801043965, 0.0, 0.0, 0.0, 0.0, 0.0, 0.0, 0.0, 0.0, 0.0, 192.0, 0.0, 0.0, 0.0, 0.0, 0.0, 0.0, 0.0, 0.0, 0.0, 1.677707971063865E9, 0.0, 2023-03-01 13:59:31.063
194.0, 11485.5109435929, 15816.764928908937, 0.0, 0.0, 0.0, 0.0, 0.0, 0.0, 0.0, 0.0, 0.0, 192.0, 0.0, 0.0, 0.0, 0.0, 0.0, 0.0, 0.0, 0.0, 0.0, 1.677707971063887E9, 0.0, 2023-03-01 13:59:31.063
195.0, 11489.243684916937, 15816.764928908937, 0.0, 0.0, 0.0, 0.0, 0.0, 0.0, 0.0, 0.0, 0.0, 192.0, 0.0, 0.0, 0.0, 0.0, 0.0, 0.0, 0.0, 0.0, 0.0, 1.677707971063915E9, 0.0, 2023-03-01 13:59:31.063
196.0, 11492.775260540875, 15818.731882421003, 0.0, 0.0, 0.0, 0.0, 0.0, 0.0, 0.0, 0.0, 0.0, 192.0, 0.0, 0.0, 0.0, 0.0, 0.0, 0.0, 0.0, 0.0, 0.0, 1.677707971063922E9, 0.0, 2023-03-01 13:59:31.063
197.0, 11485.46624010399, 15813.345112007275, 0.0, 0.0, 0.0, 0.0, 0.0, 0.0, 0.0, 0.0, 0.0, 192.0, 0.0, 0.0, 0.0, 0.0, 0.0, 0.0, 0.0, 0.0, 0.0, 1.677707971063929E9, 0.0, 2023-03-01 13:59:31.063
0.0, 0.0, 0.0, 0.0, 0.0, 0.0, 0.0, 0.0, 0.0, -0.264, -0.8180000000000001, 0.56, 192.0, 247.0, 192.0, 230.0, 112.0, 17.0, 128.0, 0.0, 0.0, 0.0, 1.677707971169192E9, 0.0, 2023-03-01 13:59:31.169
1.0, 11841.57423276594, 15816.27319053092, 0.0, 0.0, 0.0, 0.0, 0.0, 0.0, -0.264, -0.8180000000000001, 0.56, 192.0, 0.0, 0.0, 0.0, 0.0, 0.0, 0.0, 0.0, 0.0, 0.0, 1.677707971185218E9, 0.0, 2023-03-01 13:59:31.185
2.0, 11854.270023616557, 15825.236240057498, 0.0, 0.0, 0.0, 0.0, 0.0, 0.0, -0.264, -0.8180000000000001, 0.56, 192.0, 0.0, 0.0, 0.0, 0.0, 0.0, 0.0, 0.0, 0.0, 0.0, 1.67770797119258E9, 0.0, 2023-03-01 13:59:31.192
3.0, 11867.234035400634, 15833.595792483782, 0.0, 0.0, 0.0, 0.0, 0.0, 0.0, -0.264, -0.8180000000000001, 0.56, 192.0, 0.0, 0.0, 0.0, 0.0, 0.0, 0.0, 0.0, 0.0, 0.0, 1.677707971192593E9, 0.0, 2023-03-01 13:59:31.192
4.0, 11872.10671569189, 15837.28383031891, 0.0, 0.0, 0.0, 0.0, 0.0, 0.0, -0.264, -0.8180000000000001, 0.56, 192.0, 0.0, 0.0, 0.0, 0.0, 0.0, 0.0, 0.0, 0.0, 0.0, 1.677707971199301E9, 0.0, 2023-03-01 13:59:31.199
5.0, 11870.363279624376, 15848.750275224482, 0.0, 0.0, 0.0, 0.0, 0.0, 0.0, -0.264, -0.8180000000000001, 0.56, 192.0, 0.0, 0.0, 0.0, 0.0, 0.0, 0.0, 0.0, 0.0, 0.0, 1.677707971199319E9, 0.0, 2023-03-01 13:59:31.199
6.0, 11871.056183702492, 15854.382914827218, 0.0, 0.0, 0.0, 0.0, 0.0, 0.0, -0.264, -0.8180000000000001, 0.56, 192.0, 0.0, 0.0, 0.0, 0.0, 0.0, 0.0, 0.0, 0.0, 0.0, 1.677707971207355E9, 0.0, 2023-03-01 13:59:31.207
7.0, 11874.96773898217, 15854.628784016228, 0.0, 0.0, 0.0, 0.0, 0.0, 0.0, -0.264, -0.8180000000000001, 0.56, 192.0, 0.0, 0.0, 0.0, 0.0, 0.0, 0.0, 0.0, 0.0, 0.0, 1.677707971207381E9, 0.0, 2023-03-01 13:59:31.207
8.0, 11878.834590772938, 15855.165225883155, 0.0, 0.0, 0.0, 0.0, 0.0, 0.0, -0.26, -0.804, 0.578, 192.0, 247.0, 224.0, 230.0, 224.0, 18.0, 16.0, 0.0, 0.0, 0.0, 1.67770797121534E9, 0.0, 2023-03-01 13:59:31.215
9.0, 11869.82683775745, 15849.152606624677, 0.0, 0.0, 0.0, 0.0, 0.0, 0.0, -0.26, -0.804, 0.578, 192.0, 0.0, 0.0, 0.0, 0.0, 0.0, 0.0, 0.0, 0.0, 0.0, 1.677707971215358E9, 0.0, 2023-03-01 13:59:31.215
10.0, 11857.01928818456, 15840.32366756483, 0.0, 0.0, 0.0, 0.0, 0.0, 0.0, -0.26, -0.804, 0.578, 192.0, 0.0, 0.0, 0.0, 0.0, 0.0, 0.0, 0.0, 0.0, 0.0, 1.677707971222477E9, 0.0, 2023-03-01 13:59:31.222
11.0, 11859.67914577474, 15842.111807121255, 0.0, 0.0, 0.0, 0.0, 0.0, 0.0, -0.26, -0.804, 0.578, 192.0, 0.0, 0.0, 0.0, 0.0, 0.0, 0.0, 0.0, 0.0, 0.0, 1.677707971222492E9, 0.0, 2023-03-01 13:59:31.222
12.0, 11867.993994712115, 15848.258536846464, 0.0, 0.0, 0.0, 0.0, 0.0, 0.0, -0.26, -0.804, 0.578, 192.0, 0.0, 0.0, 0.0, 0.0, 0.0, 0.0, 0.0, 0.0, 0.0, 1.67770797122896E9, 0.0, 2023-03-01 13:59:31.228
13.0, 11866.362317366877, 15844.99518215599, 0.0, 0.0, 0.0, 0.0, 0.0, 0.0, -0.26, -0.804, 0.578, 192.0, 0.0, 0.0, 0.0, 0.0, 0.0, 0.0, 0.0, 0.0, 0.0, 1.677707971236996E9, 0.0, 2023-03-01 13:59:31.236
14.0, 11865.49059933312, 15843.631725744215, 0.0, 0.0, 0.0, 0.0, 0.0, 0.0, -0.26, -0.804, 0.578, 192.0, 0.0, 0.0, 0.0, 0.0, 0.0, 0.0, 0.0, 0.0, 0.0, 1.677707971237004E9, 0.0, 2023-03-01 13:59:31.237
15.0, 11871.078535446946, 15846.716266479048, 0.0, 0.0, 0.0, 0.0, 0.0, 0.0, -0.26, -0.804, 0.578, 192.0, 0.0, 0.0, 0.0, 0.0, 0.0, 0.0, 0.0, 0.0, 0.0, 1.677707971244958E9, 0.0, 2023-03-01 13:59:31.244
16.0, 11878.320500650467, 15853.71236249356, 0.0, 0.0, 0.0, 0.0, 0.0, 0.0, -0.26, -0.804, 0.578, 192.0, 0.0, 0.0, 0.0, 0.0, 0.0, 0.0, 0.0, 0.0, 0.0, 1.677707971244977E9, 0.0, 2023-03-01 13:59:31.244
17.0, 11885.271893176066, 15860.306127107875, 0.0, 0.0, 0.0, 0.0, 0.0, 0.0, -0.26, -0.804, 0.578, 192.0, 0.0, 0.0, 0.0, 0.0, 0.0, 0.0, 0.0, 0.0, 0.0, 1.677707971252126E9, 0.0, 2023-03-01 13:59:31.252
18.0, 11883.662567575284, 15864.061220176367, 0.0, 0.0, 0.0, 0.0, 0.0, 0.0, -0.262, -0.802, 0.586, 192.0, 247.0, 208.0, 230.0, 240.0, 18.0, 80.0, 0.0, 0.0, 0.0, 1.677707971252154E9, 0.0, 2023-03-01 13:59:31.252
19.0, 11892.335044423944, 15869.202121401087, 0.0, 0.0, 0.0, 0.0, 0.0, 0.0, -0.262, -0.802, 0.586, 192.0, 0.0, 0.0, 0.0, 0.0, 0.0, 0.0, 0.0, 0.0, 0.0, 1.677707971259594E9, 0.0, 2023-03-01 13:59:31.259
20.0, 11903.44386141823, 15873.247787147498, 0.0, 0.0, 0.0, 0.0, 0.0, 0.0, -0.262, -0.802, 0.586, 192.0, 0.0, 0.0, 0.0, 0.0, 0.0, 0.0, 0.0, 0.0, 0.0, 1.677707971259611E9, 0.0, 2023-03-01 13:59:31.259
21.0, 11908.294189965032, 15878.99218547251, 0.0, 0.0, 0.0, 0.0, 0.0, 0.0, -0.262, -0.802, 0.586, 192.0, 0.0, 0.0, 0.0, 0.0, 0.0, 0.0, 0.0, 0.0, 0.0, 1.677707971268952E9, 0.0, 2023-03-01 13:59:31.268
22.0, 11905.4108149303, 15875.460609848573, 0.0, 0.0, 0.0, 0.0, 0.0, 0.0, -0.262, -0.802, 0.586, 192.0, 0.0, 0.0, 0.0, 0.0, 0.0, 0.0, 0.0, 0.0, 0.0, 1.677707971268965E9, 0.0, 2023-03-01 13:59:31.268
23.0, 11904.628503874363, 15879.305109894885, 0.0, 0.0, 0.0, 0.0, 0.0, 0.0, -0.262, -0.802, 0.586, 192.0, 0.0, 0.0, 0.0, 0.0, 0.0, 0.0, 0.0, 0.0, 0.0, 1.677707971275613E9, 0.0, 2023-03-01 13:59:31.275
24.0, 11910.283495221556, 15882.926092496646, 0.0, 0.0, 0.0, 0.0, 0.0, 0.0, -0.262, -0.802, 0.586, 192.0, 0.0, 0.0, 0.0, 0.0, 0.0, 0.0, 0.0, 0.0, 0.0, 1.677707971275625E9, 0.0, 2023-03-01 13:59:31.275
25.0, 11914.083291778958, 15888.022290232455, 0.0, 0.0, 0.0, 0.0, 0.0, 0.0, -0.262, -0.802, 0.586, 192.0, 0.0, 0.0, 0.0, 0.0, 0.0, 0.0, 0.0, 0.0, 0.0, 1.677707971282172E9, 0.0, 2023-03-01 13:59:31.282
26.0, 11907.087195764447, 15886.032984975933, 0.0, 0.0, 0.0, 0.0, 0.0, 0.0, -0.262, -0.802, 0.586, 192.0, 0.0, 0.0, 0.0, 0.0, 0.0, 0.0, 0.0, 0.0, 0.0, 1.67770797128218E9, 0.0, 2023-03-01 13:59:31.282
27.0, 11902.482736406653, 15880.132124439733, 0.0, 0.0, 0.0, 0.0, 0.0, 0.0, -0.262, -0.802, 0.586, 192.0, 0.0, 0.0, 0.0, 0.0, 0.0, 0.0, 0.0, 0.0, 0.0, 1.677707971289265E9, 0.0, 2023-03-01 13:59:31.289
28.0, 11910.328198710466, 15883.864865763768, 0.0, 0.0, 0.0, 0.0, 0.0, 0.0, -0.256, -0.8, 0.586, 192.0, 248.0, 0.0, 231.0, 0.0, 18.0, 80.0, 0.0, 0.0, 0.0, 1.677707971297193E9, 0.0, 2023-03-01 13:59:31.297
29.0, 11906.438995175242, 15879.215702917065, 0.0, 0.0, 0.0, 0.0, 0.0, 0.0, -0.256, -0.8, 0.586, 192.0, 0.0, 0.0, 0.0, 0.0, 0.0, 0.0, 0.0, 0.0, 0.0, 1.677707971297209E9, 0.0, 2023-03-01 13:59:31.297
30.0, 11901.11927999488, 15875.348851126297, 0.0, 0.0, 0.0, 0.0, 0.0, 0.0, -0.256, -0.8, 0.586, 192.0, 0.0, 0.0, 0.0, 0.0, 0.0, 0.0, 0.0, 0.0, 0.0, 1.677707971305243E9, 0.0, 2023-03-01 13:59:31.305
31.0, 11892.647968846319, 15870.498522579495, 0.0, 0.0, 0.0, 0.0, 0.0, 0.0, -0.256, -0.8, 0.586, 192.0, 0.0, 0.0, 0.0, 0.0, 0.0, 0.0, 0.0, 0.0, 0.0, 1.677707971305265E9, 0.0, 2023-03-01 13:59:31.305
32.0, 11884.199009442213, 15864.70942076557, 0.0, 0.0, 0.0, 0.0, 0.0, 0.0, -0.256, -0.8, 0.586, 192.0, 0.0, 0.0, 0.0, 0.0, 0.0, 0.0, 0.0, 0.0, 0.0, 1.677707971311769E9, 0.0, 2023-03-01 13:59:31.311
33.0, 11887.417660643776, 15866.743429511003, 0.0, 0.0, 0.0, 0.0, 0.0, 0.0, -0.256, -0.8, 0.586, 192.0, 0.0, 0.0, 0.0, 0.0, 0.0, 0.0, 0.0, 0.0, 0.0, 1.67770797131178E9, 0.0, 2023-03-01 13:59:31.311
34.0, 11880.935654751738, 15858.830911973824, 0.0, 0.0, 0.0, 0.0, 0.0, 0.0, -0.256, -0.8, 0.586, 192.0, 0.0, 0.0, 0.0, 0.0, 0.0, 0.0, 0.0, 0.0, 0.0, 1.677707971319815E9, 0.0, 2023-03-01 13:59:31.319
35.0, 11877.918169250272, 15856.215757872555, 0.0, 0.0, 0.0, 0.0, 0.0, 0.0, -0.256, -0.8, 0.586, 192.0, 0.0, 0.0, 0.0, 0.0, 0.0, 0.0, 0.0, 0.0, 0.0, 1.677707971319832E9, 0.0, 2023-03-01 13:59:31.319
36.0, 11879.080459961946, 15858.540339295905, 0.0, 0.0, 0.0, 0.0, 0.0, 0.0, -0.256, -0.8, 0.586, 192.0, 0.0, 0.0, 0.0, 0.0, 0.0, 0.0, 0.0, 0.0, 0.0, 1.677707971327805E9, 0.0, 2023-03-01 13:59:31.327
37.0, 11880.600378584908, 15855.612260772261, 0.0, 0.0, 0.0, 0.0, 0.0, 0.0, -0.256, -0.8, 0.586, 192.0, 0.0, 0.0, 0.0, 0.0, 0.0, 0.0, 0.0, 0.0, 0.0, 1.677707971327814E9, 0.0, 2023-03-01 13:59:31.327
38.0, 11880.063936717981, 15857.51215905096, 0.0, 0.0, 0.0, 0.0, 0.0, 0.0, -0.256, -0.798, 0.586, 192.0, 248.0, 0.0, 231.0, 16.0, 18.0, 80.0, 0.0, 0.0, 0.0, 1.677707971334955E9, 0.0, 2023-03-01 13:59:31.334
39.0, 11880.309805906989, 15859.926147452135, 0.0, 0.0, 0.0, 0.0, 0.0, 0.0, -0.256, -0.798, 0.586, 192.0, 0.0, 0.0, 0.0, 0.0, 0.0, 0.0, 0.0, 0.0, 0.0, 1.67770797133498E9, 0.0, 2023-03-01 13:59:31.334
40.0, 11883.886085019838, 15862.451894575584, 0.0, 0.0, 0.0, 0.0, 0.0, 0.0, -0.256, -0.798, 0.586, 192.0, 0.0, 0.0, 0.0, 0.0, 0.0, 0.0, 0.0, 0.0, 0.0, 1.677707971342562E9, 0.0, 2023-03-01 13:59:31.342
41.0, 11897.095965992925, 15871.28083363543, 0.0, 0.0, 0.0, 0.0, 0.0, 0.0, -0.256, -0.798, 0.586, 192.0, 0.0, 0.0, 0.0, 0.0, 0.0, 0.0, 0.0, 0.0, 0.0, 1.677707971342578E9, 0.0, 2023-03-01 13:59:31.342
42.0, 11898.481774149153, 15874.343022625808, 0.0, 0.0, 0.0, 0.0, 0.0, 0.0, -0.256, -0.798, 0.586, 192.0, 0.0, 0.0, 0.0, 0.0, 0.0, 0.0, 0.0, 0.0, 0.0, 1.677707971351088E9, 0.0, 2023-03-01 13:59:31.351
43.0, 11898.526477638065, 15875.818237759859, 0.0, 0.0, 0.0, 0.0, 0.0, 0.0, -0.256, -0.798, 0.586, 192.0, 0.0, 0.0, 0.0, 0.0, 0.0, 0.0, 0.0, 0.0, 0.0, 1.677707971357509E9, 0.0, 2023-03-01 13:59:31.357
44.0, 11897.453593904209, 15875.661775548671, 0.0, 0.0, 0.0, 0.0, 0.0, 0.0, -0.256, -0.798, 0.586, 192.0, 0.0, 0.0, 0.0, 0.0, 0.0, 0.0, 0.0, 0.0, 0.0, 1.677707971357519E9, 0.0, 2023-03-01 13:59:31.357
45.0, 11907.288361464545, 15884.356604141785, 0.0, 0.0, 0.0, 0.0, 0.0, 0.0, -0.256, -0.798, 0.586, 192.0, 0.0, 0.0, 0.0, 0.0, 0.0, 0.0, 0.0, 0.0, 0.0, 1.677707971364157E9, 0.0, 2023-03-01 13:59:31.364
46.0, 11917.748977869627, 15891.755031556491, 0.0, 0.0, 0.0, 0.0, 0.0, 0.0, -0.256, -0.798, 0.586, 192.0, 0.0, 0.0, 0.0, 0.0, 0.0, 0.0, 0.0, 0.0, 0.0, 1.677707971364169E9, 0.0, 2023-03-01 13:59:31.364
47.0, 11914.664437134796, 15893.789040301925, 0.0, 0.0, 0.0, 0.0, 0.0, 0.0, -0.256, -0.798, 0.586, 192.0, 0.0, 0.0, 0.0, 0.0, 0.0, 0.0, 0.0, 0.0, 0.0, 1.677707971372129E9, 0.0, 2023-03-01 13:59:31.372
48.0, 11915.737320868651, 15895.1524967137, 0.0, 0.0, 0.0, 0.0, 0.0, 0.0, -0.258, -0.796, 0.59, 192.0, 247.0, 240.0, 231.0, 32.0, 18.0, 112.0, 0.0, 0.0, 0.0, 1.677707971372139E9, 0.0, 2023-03-01 13:59:31.372
49.0, 11929.997733831136, 15904.115546240277, 0.0, 0.0, 0.0, 0.0, 0.0, 0.0, -0.258, -0.796, 0.59, 192.0, 0.0, 0.0, 0.0, 0.0, 0.0, 0.0, 0.0, 0.0, 0.0, 1.677707971380177E9, 0.0, 2023-03-01 13:59:31.380
50.0, 11928.634277419362, 15904.920209040667, 0.0, 0.0, 0.0, 0.0, 0.0, 0.0, -0.258, -0.796, 0.59, 192.0, 0.0, 0.0, 0.0, 0.0, 0.0, 0.0, 0.0, 0.0, 0.0, 1.677707971380195E9, 0.0, 2023-03-01 13:59:31.380
51.0, 11921.369960471387, 15903.355586928796, 0.0, 0.0, 0.0, 0.0, 0.0, 0.0, -0.258, -0.796, 0.59, 192.0, 0.0, 0.0, 0.0, 0.0, 0.0, 0.0, 0.0, 0.0, 0.0, 1.677707971387357E9, 0.0, 2023-03-01 13:59:31.387
52.0, 11921.88405059386, 15904.003787518, 0.0, 0.0, 0.0, 0.0, 0.0, 0.0, -0.258, -0.796, 0.59, 192.0, 0.0, 0.0, 0.0, 0.0, 0.0, 0.0, 0.0, 0.0, 0.0, 1.677707971387374E9, 0.0, 2023-03-01 13:59:31.387
53.0, 11919.939448826248, 15897.566485114872, 0.0, 0.0, 0.0, 0.0, 0.0, 0.0, -0.258, -0.796, 0.59, 192.0, 0.0, 0.0, 0.0, 0.0, 0.0, 0.0, 0.0, 0.0, 0.0, 1.677707971394841E9, 0.0, 2023-03-01 13:59:31.394
54.0, 11917.793681358538, 15894.280778679942, 0.0, 0.0, 0.0, 0.0, 0.0, 0.0, -0.258, -0.796, 0.59, 192.0, 0.0, 0.0, 0.0, 0.0, 0.0, 0.0, 0.0, 0.0, 0.0, 1.677707971394855E9, 0.0, 2023-03-01 13:59:31.394
55.0, 11910.97639929967, 15890.458630378083, 0.0, 0.0, 0.0, 0.0, 0.0, 0.0, -0.258, -0.796, 0.59, 192.0, 0.0, 0.0, 0.0, 0.0, 0.0, 0.0, 0.0, 0.0, 0.0, 1.677707971402874E9, 0.0, 2023-03-01 13:59:31.402
56.0, 11902.370977684377, 15883.842514019314, 0.0, 0.0, 0.0, 0.0, 0.0, 0.0, -0.258, -0.796, 0.59, 192.0, 0.0, 0.0, 0.0, 0.0, 0.0, 0.0, 0.0, 0.0, 0.0, 1.677707971402887E9, 0.0, 2023-03-01 13:59:31.402
57.0, 11907.467175420186, 15887.932883254634, 0.0, 0.0, 0.0, 0.0, 0.0, 0.0, -0.258, -0.796, 0.59, 192.0, 0.0, 0.0, 0.0, 0.0, 0.0, 0.0, 0.0, 0.0, 0.0, 1.677707971409757E9, 0.0, 2023-03-01 13:59:31.409
58.0, 11909.657646376807, 15889.81042978888, 0.0, 0.0, 0.0, 0.0, 0.0, 0.0, -0.258, -0.796, 0.59, 192.0, 0.0, 0.0, 0.0, 0.0, 0.0, 0.0, 0.0, 0.0, 0.0, 1.677707971417102E9, 0.0, 2023-03-01 13:59:31.417
59.0, 11903.063881762491, 15887.105868709788, 0.0, 0.0, 0.0, 0.0, 0.0, 0.0, -0.258, -0.802, 0.596, 192.0, 247.0, 240.0, 230.0, 240.0, 18.0, 160.0, 0.0, 0.0, 0.0, 1.677707971417115E9, 0.0, 2023-03-01 13:59:31.417
60.0, 11901.543963139531, 15890.480982122539, 0.0, 0.0, 0.0, 0.0, 0.0, 0.0, -0.258, -0.802, 0.596, 192.0, 0.0, 0.0, 0.0, 0.0, 0.0, 0.0, 0.0, 0.0, 0.0, 1.677707971424461E9, 0.0, 2023-03-01 13:59:31.424
61.0, 11902.192163728734, 15891.687976323126, 0.0, 0.0, 0.0, 0.0, 0.0, 0.0, -0.258, -0.802, 0.596, 192.0, 0.0, 0.0, 0.0, 0.0, 0.0, 0.0, 0.0, 0.0, 0.0, 1.677707971424484E9, 0.0, 2023-03-01 13:59:31.424
62.0, 11907.713044609196, 15890.056298977888, 0.0, 0.0, 0.0, 0.0, 0.0, 0.0, -0.258, -0.802, 0.596, 192.0, 0.0, 0.0, 0.0, 0.0, 0.0, 0.0, 0.0, 0.0, 0.0, 1.677707971432558E9, 0.0, 2023-03-01 13:59:31.432
63.0, 11910.104681265913, 15887.418793132163, 0.0, 0.0, 0.0, 0.0, 0.0, 0.0, -0.258, -0.802, 0.596, 192.0, 0.0, 0.0, 0.0, 0.0, 0.0, 0.0, 0.0, 0.0, 0.0, 1.677707971432578E9, 0.0, 2023-03-01 13:59:31.432
64.0, 11905.12024225238, 15886.077688464844, 0.0, 0.0, 0.0, 0.0, 0.0, 0.0, -0.258, -0.802, 0.596, 192.0, 0.0, 0.0, 0.0, 0.0, 0.0, 0.0, 0.0, 0.0, 0.0, 1.67770797144039E9, 0.0, 2023-03-01 13:59:31.440
65.0, 11903.935599796248, 15887.709365810082, 0.0, 0.0, 0.0, 0.0, 0.0, 0.0, -0.258, -0.802, 0.596, 192.0, 0.0, 0.0, 0.0, 0.0, 0.0, 0.0, 0.0, 0.0, 0.0, 1.677707971440406E9, 0.0, 2023-03-01 13:59:31.440
66.0, 11916.094948779935, 15896.180676958642, 0.0, 0.0, 0.0, 0.0, 0.0, 0.0, -0.258, -0.802, 0.596, 192.0, 0.0, 0.0, 0.0, 0.0, 0.0, 0.0, 0.0, 0.0, 0.0, 1.677707971447031E9, 0.0, 2023-03-01 13:59:31.447
67.0, 11924.007466317114, 15901.053357249899, 0.0, 0.0, 0.0, 0.0, 0.0, 0.0, -0.258, -0.802, 0.596, 192.0, 0.0, 0.0, 0.0, 0.0, 0.0, 0.0, 0.0, 0.0, 0.0, 1.677707971447049E9, 0.0, 2023-03-01 13:59:31.447
68.0, 11926.98024832967, 15906.57423813036, 0.0, 0.0, 0.0, 0.0, 0.0, 0.0, -0.258, -0.802, 0.596, 192.0, 0.0, 0.0, 0.0, 0.0, 0.0, 0.0, 0.0, 0.0, 0.0, 1.677707971455048E9, 0.0, 2023-03-01 13:59:31.455
69.0, 11926.443806462743, 15908.675302109159, 0.0, 0.0, 0.0, 0.0, 0.0, 0.0, -0.262, -0.792, 0.6, 192.0, 247.0, 208.0, 231.0, 64.0, 18.0, 192.0, 0.0, 0.0, 0.0, 1.677707971455061E9, 0.0, 2023-03-01 13:59:31.455
70.0, 11928.366056485898, 15909.703482354103, 0.0, 0.0, 0.0, 0.0, 0.0, 0.0, -0.262, -0.792, 0.6, 192.0, 0.0, 0.0, 0.0, 0.0, 0.0, 0.0, 0.0, 0.0, 0.0, 1.677707971463082E9, 0.0, 2023-03-01 13:59:31.463
71.0, 11931.540004198552, 15915.738453357037, 0.0, 0.0, 0.0, 0.0, 0.0, 0.0, -0.262, -0.792, 0.6, 192.0, 0.0, 0.0, 0.0, 0.0, 0.0, 0.0, 0.0, 0.0, 0.0, 1.67770797146311E9, 0.0, 2023-03-01 13:59:31.463
72.0, 11926.242640762644, 15912.184525988643, 0.0, 0.0, 0.0, 0.0, 0.0, 0.0, -0.262, -0.792, 0.6, 192.0, 0.0, 0.0, 0.0, 0.0, 0.0, 0.0, 0.0, 0.0, 0.0, 1.677707971470243E9, 0.0, 2023-03-01 13:59:31.470
73.0, 11926.533213440563, 15915.693749868125, 0.0, 0.0, 0.0, 0.0, 0.0, 0.0, -0.262, -0.792, 0.6, 192.0, 0.0, 0.0, 0.0, 0.0, 0.0, 0.0, 0.0, 0.0, 0.0, 1.677707971470269E9, 0.0, 2023-03-01 13:59:31.470
74.0, 11928.634277419362, 15915.090252767832, 0.0, 0.0, 0.0, 0.0, 0.0, 0.0, -0.262, -0.792, 0.6, 192.0, 0.0, 0.0, 0.0, 0.0, 0.0, 0.0, 0.0, 0.0, 0.0, 1.677707971476825E9, 0.0, 2023-03-01 13:59:31.476
75.0, 11936.144463556346, 15922.980418560555, 0.0, 0.0, 0.0, 0.0, 0.0, 0.0, -0.262, -0.792, 0.6, 192.0, 0.0, 0.0, 0.0, 0.0, 0.0, 0.0, 0.0, 0.0, 0.0, 1.6777079714847E9, 0.0, 2023-03-01 13:59:31.484
76.0, 11931.338838498456, 15916.81133709089, 0.0, 0.0, 0.0, 0.0, 0.0, 0.0, -0.262, -0.792, 0.6, 192.0, 0.0, 0.0, 0.0, 0.0, 0.0, 0.0, 0.0, 0.0, 0.0, 1.67770797148472E9, 0.0, 2023-03-01 13:59:31.484
77.0, 11924.655666906317, 15909.591723631827, 0.0, 0.0, 0.0, 0.0, 0.0, 0.0, -0.262, -0.792, 0.6, 192.0, 0.0, 0.0, 0.0, 0.0, 0.0, 0.0, 0.0, 0.0, 0.0, 1.677707971492713E9, 0.0, 2023-03-01 13:59:31.492
78.0, 11923.716893639195, 15907.222438719564, 0.0, 0.0, 0.0, 0.0, 0.0, 0.0, -0.262, -0.792, 0.6, 192.0, 0.0, 0.0, 0.0, 0.0, 0.0, 0.0, 0.0, 0.0, 0.0, 1.677707971492727E9, 0.0, 2023-03-01 13:59:31.492
79.0, 11926.734379140662, 15907.66947360867, 0.0, 0.0, 0.0, 0.0, 0.0, 0.0, -0.256, -0.796, 0.594, 192.0, 248.0, 0.0, 231.0, 32.0, 18.0, 144.0, 0.0, 0.0, 0.0, 1.677707971499851E9, 0.0, 2023-03-01 13:59:31.499
80.0, 11921.437015704754, 15903.847325306813, 0.0, 0.0, 0.0, 0.0, 0.0, 0.0, -0.256, -0.796, 0.594, 192.0, 0.0, 0.0, 0.0, 0.0, 0.0, 0.0, 0.0, 0.0, 0.0, 1.677707971499864E9, 0.0, 2023-03-01 13:59:31.499
81.0, 11914.887954579348, 15900.874543294258, 0.0, 0.0, 0.0, 0.0, 0.0, 0.0, -0.256, -0.796, 0.594, 192.0, 0.0, 0.0, 0.0, 0.0, 0.0, 0.0, 0.0, 0.0, 0.0, 1.677707971507317E9, 0.0, 2023-03-01 13:59:31.507
82.0, 11910.372902199377, 15896.314787425375, 0.0, 0.0, 0.0, 0.0, 0.0, 0.0, -0.256, -0.796, 0.594, 192.0, 0.0, 0.0, 0.0, 0.0, 0.0, 0.0, 0.0, 0.0, 0.0, 1.677707971507331E9, 0.0, 2023-03-01 13:59:31.507
83.0, 11914.955009812715, 15897.43237464814, 0.0, 0.0, 0.0, 0.0, 0.0, 0.0, -0.256, -0.796, 0.594, 192.0, 0.0, 0.0, 0.0, 0.0, 0.0, 0.0, 0.0, 0.0, 0.0, 1.677707971515267E9, 0.0, 2023-03-01 13:59:31.515
84.0, 11909.456480676708, 15892.246769934509, 0.0, 0.0, 0.0, 0.0, 0.0, 0.0, -0.256, -0.796, 0.594, 192.0, 0.0, 0.0, 0.0, 0.0, 0.0, 0.0, 0.0, 0.0, 0.0, 1.677707971515287E9, 0.0, 2023-03-01 13:59:31.515
85.0, 11905.723739352672, 15890.257464677987, 0.0, 0.0, 0.0, 0.0, 0.0, 0.0, -0.256, -0.796, 0.594, 192.0, 0.0, 0.0, 0.0, 0.0, 0.0, 0.0, 0.0, 0.0, 0.0, 1.677707971523286E9, 0.0, 2023-03-01 13:59:31.523
86.0, 11904.740262596639, 15889.318691410863, 0.0, 0.0, 0.0, 0.0, 0.0, 0.0, -0.256, -0.796, 0.594, 192.0, 0.0, 0.0, 0.0, 0.0, 0.0, 0.0, 0.0, 0.0, 0.0, 1.677707971523306E9, 0.0, 2023-03-01 13:59:31.523
87.0, 11908.964742298693, 15892.738508312525, 0.0, 0.0, 0.0, 0.0, 0.0, 0.0, -0.256, -0.796, 0.594, 192.0, 0.0, 0.0, 0.0, 0.0, 0.0, 0.0, 0.0, 0.0, 0.0, 1.677707971529881E9, 0.0, 2023-03-01 13:59:31.529
88.0, 11911.669303377785, 15898.43820314863, 0.0, 0.0, 0.0, 0.0, 0.0, 0.0, -0.256, -0.796, 0.594, 192.0, 0.0, 0.0, 0.0, 0.0, 0.0, 0.0, 0.0, 0.0, 0.0, 1.677707971529895E9, 0.0, 2023-03-01 13:59:31.529
89.0, 11909.992922543637, 15897.81235430388, 0.0, 0.0, 0.0, 0.0, 0.0, 0.0, -0.258, -0.796, 0.59, 192.0, 247.0, 240.0, 231.0, 32.0, 18.0, 112.0, 0.0, 0.0, 0.0, 1.677707971536908E9, 0.0, 2023-03-01 13:59:31.536
90.0, 11920.989980815648, 15907.490659653027, 0.0, 0.0, 0.0, 0.0, 0.0, 0.0, -0.258, -0.796, 0.59, 192.0, 0.0, 0.0, 0.0, 0.0, 0.0, 0.0, 0.0, 0.0, 0.0, 1.677707971544993E9, 0.0, 2023-03-01 13:59:31.544
91.0, 11927.516690196597, 15910.664607365681, 0.0, 0.0, 0.0, 0.0, 0.0, 0.0, -0.258, -0.796, 0.59, 192.0, 0.0, 0.0, 0.0, 0.0, 0.0, 0.0, 0.0, 0.0, 0.0, 1.677707971545014E9, 0.0, 2023-03-01 13:59:31.545
92.0, 11931.919983854294, 15913.749148100515, 0.0, 0.0, 0.0, 0.0, 0.0, 0.0, -0.258, -0.796, 0.59, 192.0, 0.0, 0.0, 0.0, 0.0, 0.0, 0.0, 0.0, 0.0, 0.0, 1.677707971552079E9, 0.0, 2023-03-01 13:59:31.552
93.0, 11931.808225132016, 15916.409005690695, 0.0, 0.0, 0.0, 0.0, 0.0, 0.0, -0.258, -0.796, 0.59, 192.0, 0.0, 0.0, 0.0, 0.0, 0.0, 0.0, 0.0, 0.0, 0.0, 1.677707971552088E9, 0.0, 2023-03-01 13:59:31.552
94.0, 11935.988001345158, 15919.985284803544, 0.0, 0.0, 0.0, 0.0, 0.0, 0.0, -0.258, -0.796, 0.59, 192.0, 0.0, 0.0, 0.0, 0.0, 0.0, 0.0, 0.0, 0.0, 0.0, 1.677707971559675E9, 0.0, 2023-03-01 13:59:31.559
95.0, 11938.893728124349, 15922.891011582735, 0.0, 0.0, 0.0, 0.0, 0.0, 0.0, -0.258, -0.796, 0.59, 192.0, 0.0, 0.0, 0.0, 0.0, 0.0, 0.0, 0.0, 0.0, 0.0, 1.677707971559699E9, 0.0, 2023-03-01 13:59:31.559
96.0, 11942.849986892938, 15924.030950549955, 0.0, 0.0, 0.0, 0.0, 0.0, 0.0, -0.258, -0.796, 0.59, 192.0, 0.0, 0.0, 0.0, 0.0, 0.0, 0.0, 0.0, 0.0, 0.0, 1.677707971567523E9, 0.0, 2023-03-01 13:59:31.567
97.0, 11940.480701980676, 15924.232116250054, 0.0, 0.0, 0.0, 0.0, 0.0, 0.0, -0.258, -0.796, 0.59, 192.0, 0.0, 0.0, 0.0, 0.0, 0.0, 0.0, 0.0, 0.0, 0.0, 1.677707971567544E9, 0.0, 2023-03-01 13:59:31.567
98.0, 11936.211518789712, 15921.013465048489, 0.0, 0.0, 0.0, 0.0, 0.0, 0.0, -0.258, -0.796, 0.59, 192.0, 0.0, 0.0, 0.0, 0.0, 0.0, 0.0, 0.0, 0.0, 0.0, 1.677707971575705E9, 0.0, 2023-03-01 13:59:31.575
99.0, 11937.351457756933, 15924.254467994508, 0.0, 0.0, 0.0, 0.0, 0.0, 0.0, -0.264, -0.802, 0.588, 192.0, 247.0, 192.0, 230.0, 240.0, 18.0, 96.0, 0.0, 0.0, 0.0, 1.677707971575727E9, 0.0, 2023-03-01 13:59:31.575
100.0, 11936.010353089614, 15921.996941804522, 0.0, 0.0, 0.0, 0.0, 0.0, 0.0, -0.264, -0.802, 0.588, 192.0, 0.0, 0.0, 0.0, 0.0, 0.0, 0.0, 0.0, 0.0, 0.0, 1.677707971582244E9, 0.0, 2023-03-01 13:59:31.582
101.0, 11932.769350143595, 15916.319598712875, 0.0, 0.0, 0.0, 0.0, 0.0, 0.0, -0.264, -0.802, 0.588, 192.0, 0.0, 0.0, 0.0, 0.0, 0.0, 0.0, 0.0, 0.0, 0.0, 1.67770797158226E9, 0.0, 2023-03-01 13:59:31.582
102.0, 11930.60123093143, 15912.743319600026, 0.0, 0.0, 0.0, 0.0, 0.0, 0.0, -0.264, -0.802, 0.588, 192.0, 0.0, 0.0, 0.0, 0.0, 0.0, 0.0, 0.0, 0.0, 0.0, 1.677707971590169E9, 0.0, 2023-03-01 13:59:31.590
103.0, 11937.642030434852, 15915.090252767832, 0.0, 0.0, 0.0, 0.0, 0.0, 0.0, -0.264, -0.802, 0.588, 192.0, 0.0, 0.0, 0.0, 0.0, 0.0, 0.0, 0.0, 0.0, 0.0, 1.677707971590182E9, 0.0, 2023-03-01 13:59:31.590
104.0, 11942.492358981654, 15919.001808047511, 0.0, 0.0, 0.0, 0.0, 0.0, 0.0, -0.264, -0.802, 0.588, 192.0, 0.0, 0.0, 0.0, 0.0, 0.0, 0.0, 0.0, 0.0, 0.0, 1.677707971597161E9, 0.0, 2023-03-01 13:59:31.597
105.0, 11936.479739723176, 15915.112604512287, 0.0, 0.0, 0.0, 0.0, 0.0, 0.0, -0.264, -0.802, 0.588, 192.0, 0.0, 0.0, 0.0, 0.0, 0.0, 0.0, 0.0, 0.0, 0.0, 1.677707971605427E9, 0.0, 2023-03-01 13:59:31.605
106.0, 11931.674114665284, 15914.173831245165, 0.0, 0.0, 0.0, 0.0, 0.0, 0.0, -0.264, -0.802, 0.588, 192.0, 0.0, 0.0, 0.0, 0.0, 0.0, 0.0, 0.0, 0.0, 0.0, 1.677707971605451E9, 0.0, 2023-03-01 13:59:31.605
107.0, 11933.194033288246, 15914.754976601003, 0.0, 0.0, 0.0, 0.0, 0.0, 0.0, -0.264, -0.802, 0.588, 192.0, 0.0, 0.0, 0.0, 0.0, 0.0, 0.0, 0.0, 0.0, 0.0, 1.67770797161185E9, 0.0, 2023-03-01 13:59:31.611
108.0, 11932.590536187952, 15914.933790556646, 0.0, 0.0, 0.0, 0.0, 0.0, 0.0, -0.264, -0.802, 0.588, 192.0, 0.0, 0.0, 0.0, 0.0, 0.0, 0.0, 0.0, 0.0, 0.0, 1.677707971611875E9, 0.0, 2023-03-01 13:59:31.611
109.0, 11932.948164099236, 15915.760805101492, 0.0, 0.0, 0.0, 0.0, 0.0, 0.0, -0.262, -0.808, 0.588, 192.0, 247.0, 208.0, 230.0, 192.0, 18.0, 96.0, 0.0, 0.0, 0.0, 1.677707971619778E9, 0.0, 2023-03-01 13:59:31.619
110.0, 11927.986076830159, 15914.24088647853, 0.0, 0.0, 0.0, 0.0, 0.0, 0.0, -0.262, -0.808, 0.588, 192.0, 0.0, 0.0, 0.0, 0.0, 0.0, 0.0, 0.0, 0.0, 0.0, 1.677707971619799E9, 0.0, 2023-03-01 13:59:31.619
111.0, 11929.953030342225, 15916.09608126832, 0.0, 0.0, 0.0, 0.0, 0.0, 0.0, -0.262, -0.808, 0.588, 192.0, 0.0, 0.0, 0.0, 0.0, 0.0, 0.0, 0.0, 0.0, 0.0, 1.677707971627978E9, 0.0, 2023-03-01 13:59:31.627
112.0, 11939.541928713552, 15919.001808047511, 0.0, 0.0, 0.0, 0.0, 0.0, 0.0, -0.262, -0.808, 0.588, 192.0, 0.0, 0.0, 0.0, 0.0, 0.0, 0.0, 0.0, 0.0, 0.0, 1.677707971627992E9, 0.0, 2023-03-01 13:59:31.627
113.0, 11939.966611858203, 15920.208802248098, 0.0, 0.0, 0.0, 0.0, 0.0, 0.0, -0.262, -0.808, 0.588, 192.0, 0.0, 0.0, 0.0, 0.0, 0.0, 0.0, 0.0, 0.0, 0.0, 1.677707971634919E9, 0.0, 2023-03-01 13:59:31.634
114.0, 11941.710047925717, 15921.95223831561, 0.0, 0.0, 0.0, 0.0, 0.0, 0.0, -0.262, -0.808, 0.588, 192.0, 0.0, 0.0, 0.0, 0.0, 0.0, 0.0, 0.0, 0.0, 0.0, 1.677707971634932E9, 0.0, 2023-03-01 13:59:31.634
115.0, 11938.022010090592, 15920.655837137205, 0.0, 0.0, 0.0, 0.0, 0.0, 0.0, -0.262, -0.808, 0.588, 192.0, 0.0, 0.0, 0.0, 0.0, 0.0, 0.0, 0.0, 0.0, 0.0, 1.677707971642502E9, 0.0, 2023-03-01 13:59:31.642
116.0, 11947.096818339447, 15927.406063962706, 0.0, 0.0, 0.0, 0.0, 0.0, 0.0, -0.262, -0.808, 0.588, 192.0, 0.0, 0.0, 0.0, 0.0, 0.0, 0.0, 0.0, 0.0, 0.0, 1.67770797164255E9, 0.0, 2023-03-01 13:59:31.642
117.0, 11953.98115563168, 15931.63054366476, 0.0, 0.0, 0.0, 0.0, 0.0, 0.0, -0.262, -0.808, 0.588, 192.0, 0.0, 0.0, 0.0, 0.0, 0.0, 0.0, 0.0, 0.0, 0.0, 1.677707971650495E9, 0.0, 2023-03-01 13:59:31.650
118.0, 11941.665344436806, 15925.14853777272, 0.0, 0.0, 0.0, 0.0, 0.0, 0.0, -0.262, -0.808, 0.588, 192.0, 0.0, 0.0, 0.0, 0.0, 0.0, 0.0, 0.0, 0.0, 0.0, 1.677707971650515E9, 0.0, 2023-03-01 13:59:31.650
119.0, 11937.329106012477, 15921.572258659871, 0.0, 0.0, 0.0, 0.0, 0.0, 0.0, -0.262, -0.798, 0.59, 192.0, 247.0, 208.0, 231.0, 16.0, 18.0, 112.0, 0.0, 0.0, 0.0, 1.677707971657493E9, 0.0, 2023-03-01 13:59:31.657
120.0, 11940.570108958496, 15921.214630748587, 0.0, 0.0, 0.0, 0.0, 0.0, 0.0, -0.262, -0.798, 0.59, 192.0, 0.0, 0.0, 0.0, 0.0, 0.0, 0.0, 0.0, 0.0, 0.0, 1.677707971664615E9, 0.0, 2023-03-01 13:59:31.664
121.0, 11939.810149647015, 15918.130090013754, 0.0, 0.0, 0.0, 0.0, 0.0, 0.0, -0.262, -0.798, 0.59, 192.0, 0.0, 0.0, 0.0, 0.0, 0.0, 0.0, 0.0, 0.0, 0.0, 1.677707971664638E9, 0.0, 2023-03-01 13:59:31.664
122.0, 11939.02783859108, 15916.81133709089, 0.0, 0.0, 0.0, 0.0, 0.0, 0.0, -0.262, -0.798, 0.59, 192.0, 0.0, 0.0, 0.0, 0.0, 0.0, 0.0, 0.0, 0.0, 0.0, 1.67770797167213E9, 0.0, 2023-03-01 13:59:31.672
123.0, 11936.367981000898, 15914.91143881219, 0.0, 0.0, 0.0, 0.0, 0.0, 0.0, -0.262, -0.798, 0.59, 192.0, 0.0, 0.0, 0.0, 0.0, 0.0, 0.0, 0.0, 0.0, 0.0, 1.677707971672145E9, 0.0, 2023-03-01 13:59:31.672
124.0, 11944.45931249372, 15923.20393600511, 0.0, 0.0, 0.0, 0.0, 0.0, 0.0, -0.262, -0.798, 0.59, 192.0, 0.0, 0.0, 0.0, 0.0, 0.0, 0.0, 0.0, 0.0, 0.0, 1.677707971680131E9, 0.0, 2023-03-01 13:59:31.680
125.0, 11945.196920060745, 15924.813261605892, 0.0, 0.0, 0.0, 0.0, 0.0, 0.0, -0.262, -0.798, 0.59, 192.0, 0.0, 0.0, 0.0, 0.0, 0.0, 0.0, 0.0, 0.0, 0.0, 1.677707971680147E9, 0.0, 2023-03-01 13:59:31.680
126.0, 11941.79945490354, 15922.131052271254, 0.0, 0.0, 0.0, 0.0, 0.0, 0.0, -0.262, -0.798, 0.59, 192.0, 0.0, 0.0, 0.0, 0.0, 0.0, 0.0, 0.0, 0.0, 0.0, 1.677707971688113E9, 0.0, 2023-03-01 13:59:31.688
127.0, 11942.715876426206, 15919.828822592357, 0.0, 0.0, 0.0, 0.0, 0.0, 0.0, -0.262, -0.798, 0.59, 192.0, 0.0, 0.0, 0.0, 0.0, 0.0, 0.0, 0.0, 0.0, 0.0, 1.677707971688122E9, 0.0, 2023-03-01 13:59:31.688
128.0, 11941.665344436806, 15915.805508590402, 0.0, 0.0, 0.0, 0.0, 0.0, 0.0, -0.262, -0.798, 0.59, 192.0, 0.0, 0.0, 0.0, 0.0, 0.0, 0.0, 0.0, 0.0, 0.0, 1.677707971696225E9, 0.0, 2023-03-01 13:59:31.696
129.0, 11945.532196227574, 15916.990151046533, 0.0, 0.0, 0.0, 0.0, 0.0, 0.0, -0.264, -0.794, 0.598, 192.0, 247.0, 192.0, 231.0, 48.0, 18.0, 176.0, 0.0, 0.0, 0.0, 1.677707971696241E9, 0.0, 2023-03-01 13:59:31.696
130.0, 11944.504015982631, 15915.447880679118, 0.0, 0.0, 0.0, 0.0, 0.0, 0.0, -0.264, -0.794, 0.598, 192.0, 0.0, 0.0, 0.0, 0.0, 0.0, 0.0, 0.0, 0.0, 0.0, 1.677707971702891E9, 0.0, 2023-03-01 13:59:31.702
131.0, 11939.072542079992, 15915.358473701297, 0.0, 0.0, 0.0, 0.0, 0.0, 0.0, -0.264, -0.794, 0.598, 192.0, 0.0, 0.0, 0.0, 0.0, 0.0, 0.0, 0.0, 0.0, 0.0, 1.677707971702915E9, 0.0, 2023-03-01 13:59:31.702
132.0, 11938.871376379893, 15915.62669463476, 0.0, 0.0, 0.0, 0.0, 0.0, 0.0, -0.264, -0.794, 0.598, 192.0, 0.0, 0.0, 0.0, 0.0, 0.0, 0.0, 0.0, 0.0, 0.0, 1.677707971710801E9, 0.0, 2023-03-01 13:59:31.710
133.0, 11949.868434651904, 15921.77342435997, 0.0, 0.0, 0.0, 0.0, 0.0, 0.0, -0.264, -0.794, 0.598, 192.0, 0.0, 0.0, 0.0, 0.0, 0.0, 0.0, 0.0, 0.0, 0.0, 1.677707971710854E9, 0.0, 2023-03-01 13:59:31.710
134.0, 11953.467065509209, 15926.802566862414, 0.0, 0.0, 0.0, 0.0, 0.0, 0.0, -0.264, -0.794, 0.598, 192.0, 0.0, 0.0, 0.0, 0.0, 0.0, 0.0, 0.0, 0.0, 0.0, 1.677707971719044E9, 0.0, 2023-03-01 13:59:31.719
135.0, 11950.40487651883, 15924.969723817077, 0.0, 0.0, 0.0, 0.0, 0.0, 0.0, -0.264, -0.794, 0.598, 192.0, 0.0, 0.0, 0.0, 0.0, 0.0, 0.0, 0.0, 0.0, 0.0, 1.677707971719056E9, 0.0, 2023-03-01 13:59:31.719
136.0, 11952.729457942183, 15927.361360473797, 0.0, 0.0, 0.0, 0.0, 0.0, 0.0, -0.264, -0.794, 0.598, 192.0, 0.0, 0.0, 0.0, 0.0, 0.0, 0.0, 0.0, 0.0, 0.0, 1.677707971724393E9, 0.0, 2023-03-01 13:59:31.724
137.0, 11962.117190613413, 15935.787968133447, 0.0, 0.0, 0.0, 0.0, 0.0, 0.0, -0.264, -0.794, 0.598, 192.0, 0.0, 0.0, 0.0, 0.0, 0.0, 0.0, 0.0, 0.0, 0.0, 1.677707971732476E9, 0.0, 2023-03-01 13:59:31.732
138.0, 11964.709992970229, 15937.307886756407, 0.0, 0.0, 0.0, 0.0, 0.0, 0.0, -0.264, -0.794, 0.598, 192.0, 0.0, 0.0, 0.0, 0.0, 0.0, 0.0, 0.0, 0.0, 0.0, 1.677707971732484E9, 0.0, 2023-03-01 13:59:31.732
139.0, 11958.920891156304, 15935.586802433349, 0.0, 0.0, 0.0, 0.0, 0.0, 0.0, -0.264, -0.794, 0.598, 192.0, 0.0, 0.0, 0.0, 0.0, 0.0, 0.0, 0.0, 0.0, 0.0, 1.677707971740609E9, 0.0, 2023-03-01 13:59:31.740
140.0, 11960.776085946094, 15935.206822777609, 0.0, 0.0, 0.0, 0.0, 0.0, 0.0, -0.264, -0.796, 0.598, 192.0, 247.0, 192.0, 231.0, 32.0, 18.0, 176.0, 0.0, 0.0, 0.0, 1.677707971740627E9, 0.0, 2023-03-01 13:59:31.740
141.0, 11963.45829528073, 15935.385636733252, 0.0, 0.0, 0.0, 0.0, 0.0, 0.0, -0.264, -0.796, 0.598, 192.0, 0.0, 0.0, 0.0, 0.0, 0.0, 0.0, 0.0, 0.0, 0.0, 1.677707971747074E9, 0.0, 2023-03-01 13:59:31.747
142.0, 11963.301833069543, 15936.458520467106, 0.0, 0.0, 0.0, 0.0, 0.0, 0.0, -0.264, -0.796, 0.598, 192.0, 0.0, 0.0, 0.0, 0.0, 0.0, 0.0, 0.0, 0.0, 0.0, 1.677707971747094E9, 0.0, 2023-03-01 13:59:31.747
143.0, 11965.581711003984, 15936.458520467106, 0.0, 0.0, 0.0, 0.0, 0.0, 0.0, -0.264, -0.796, 0.598, 192.0, 0.0, 0.0, 0.0, 0.0, 0.0, 0.0, 0.0, 0.0, 0.0, 1.677707971755104E9, 0.0, 2023-03-01 13:59:31.755
144.0, 11961.625452235396, 15935.922078600179, 0.0, 0.0, 0.0, 0.0, 0.0, 0.0, -0.264, -0.796, 0.598, 192.0, 0.0, 0.0, 0.0, 0.0, 0.0, 0.0, 0.0, 0.0, 0.0, 1.677707971755123E9, 0.0, 2023-03-01 13:59:31.755
145.0, 11965.358193559432, 15939.118378057288, 0.0, 0.0, 0.0, 0.0, 0.0, 0.0, -0.264, -0.796, 0.598, 192.0, 0.0, 0.0, 0.0, 0.0, 0.0, 0.0, 0.0, 0.0, 0.0, 1.677707971763047E9, 0.0, 2023-03-01 13:59:31.763
146.0, 11967.816885449516, 15940.459482724606, 0.0, 0.0, 0.0, 0.0, 0.0, 0.0, -0.264, -0.796, 0.598, 192.0, 0.0, 0.0, 0.0, 0.0, 0.0, 0.0, 0.0, 0.0, 0.0, 1.677707971763062E9, 0.0, 2023-03-01 13:59:31.763
147.0, 11964.017088892113, 15937.754921645514, 0.0, 0.0, 0.0, 0.0, 0.0, 0.0, -0.264, -0.796, 0.598, 192.0, 0.0, 0.0, 0.0, 0.0, 0.0, 0.0, 0.0, 0.0, 0.0, 1.677707971770241E9, 0.0, 2023-03-01 13:59:31.770
148.0, 11962.161894102323, 15939.72187515758, 0.0, 0.0, 0.0, 0.0, 0.0, 0.0, -0.264, -0.796, 0.598, 192.0, 0.0, 0.0, 0.0, 0.0, 0.0, 0.0, 0.0, 0.0, 0.0, 1.677707971770258E9, 0.0, 2023-03-01 13:59:31.770
149.0, 11962.631280735885, 15939.230136779564, 0.0, 0.0, 0.0, 0.0, 0.0, 0.0, -0.264, -0.796, 0.598, 192.0, 0.0, 0.0, 0.0, 0.0, 0.0, 0.0, 0.0, 0.0, 0.0, 1.677707971777635E9, 0.0, 2023-03-01 13:59:31.777
150.0, 11969.672080239307, 15943.387561248252, 0.0, 0.0, 0.0, 0.0, 0.0, 0.0, -0.266, -0.796, 0.596, 192.0, 247.0, 176.0, 231.0, 32.0, 18.0, 160.0, 0.0, 0.0, 0.0, 1.677707971777679E9, 0.0, 2023-03-01 13:59:31.777
151.0, 11967.07927788249, 15945.779197904969, 0.0, 0.0, 0.0, 0.0, 0.0, 0.0, -0.266, -0.796, 0.596, 192.0, 0.0, 0.0, 0.0, 0.0, 0.0, 0.0, 0.0, 0.0, 0.0, 1.677707971784726E9, 0.0, 2023-03-01 13:59:31.784
152.0, 11960.038478379069, 15943.901651370723, 0.0, 0.0, 0.0, 0.0, 0.0, 0.0, -0.266, -0.796, 0.596, 192.0, 0.0, 0.0, 0.0, 0.0, 0.0, 0.0, 0.0, 0.0, 0.0, 1.677707971792842E9, 0.0, 2023-03-01 13:59:31.792
153.0, 11961.156065601834, 15943.409912992707, 0.0, 0.0, 0.0, 0.0, 0.0, 0.0, -0.266, -0.796, 0.596, 192.0, 0.0, 0.0, 0.0, 0.0, 0.0, 0.0, 0.0, 0.0, 0.0, 1.67770797179287E9, 0.0, 2023-03-01 13:59:31.792
154.0, 11963.815923192016, 15942.91817461469, 0.0, 0.0, 0.0, 0.0, 0.0, 0.0, -0.266, -0.796, 0.596, 192.0, 0.0, 0.0, 0.0, 0.0, 0.0, 0.0, 0.0, 0.0, 0.0, 1.677707971800009E9, 0.0, 2023-03-01 13:59:31.800
155.0, 11963.413591791821, 15940.615944935793, 0.0, 0.0, 0.0, 0.0, 0.0, 0.0, -0.266, -0.796, 0.596, 192.0, 0.0, 0.0, 0.0, 0.0, 0.0, 0.0, 0.0, 0.0, 0.0, 1.677707971800026E9, 0.0, 2023-03-01 13:59:31.800
156.0, 11958.607966733929, 15934.893898355234, 0.0, 0.0, 0.0, 0.0, 0.0, 0.0, -0.266, -0.796, 0.596, 192.0, 0.0, 0.0, 0.0, 0.0, 0.0, 0.0, 0.0, 0.0, 0.0, 1.677707971807367E9, 0.0, 2023-03-01 13:59:31.807
157.0, 11958.31739405601, 15933.284572754452, 0.0, 0.0, 0.0, 0.0, 0.0, 0.0, -0.266, -0.796, 0.596, 192.0, 0.0, 0.0, 0.0, 0.0, 0.0, 0.0, 0.0, 0.0, 0.0, 1.67770797180738E9, 0.0, 2023-03-01 13:59:31.807
158.0, 11964.732344714683, 15937.352590245318, 0.0, 0.0, 0.0, 0.0, 0.0, 0.0, -0.266, -0.796, 0.596, 192.0, 0.0, 0.0, 0.0, 0.0, 0.0, 0.0, 0.0, 0.0, 0.0, 1.677707971815384E9, 0.0, 2023-03-01 13:59:31.815
159.0, 11962.407763291332, 15937.196128034131, 0.0, 0.0, 0.0, 0.0, 0.0, 0.0, -0.266, -0.796, 0.596, 192.0, 0.0, 0.0, 0.0, 0.0, 0.0, 0.0, 0.0, 0.0, 0.0, 1.677707971815397E9, 0.0, 2023-03-01 13:59:31.815
160.0, 11954.562300987518, 15932.43520646515, 0.0, 0.0, 0.0, 0.0, 0.0, 0.0, -0.264, -0.796, 0.594, 192.0, 247.0, 192.0, 231.0, 32.0, 18.0, 144.0, 0.0, 0.0, 0.0, 1.6777079718234E9, 0.0, 2023-03-01 13:59:31.823
161.0, 11958.160931844823, 15937.218479778587, 0.0, 0.0, 0.0, 0.0, 0.0, 0.0, -0.264, -0.796, 0.594, 192.0, 0.0, 0.0, 0.0, 0.0, 0.0, 0.0, 0.0, 0.0, 0.0, 1.677707971823409E9, 0.0, 2023-03-01 13:59:31.823
162.0, 11959.144408600856, 15938.82780537937, 0.0, 0.0, 0.0, 0.0, 0.0, 0.0, -0.264, -0.796, 0.594, 192.0, 0.0, 0.0, 0.0, 0.0, 0.0, 0.0, 0.0, 0.0, 0.0, 1.677707971830041E9, 0.0, 2023-03-01 13:59:31.830
163.0, 11956.328088799488, 15938.648991423726, 0.0, 0.0, 0.0, 0.0, 0.0, 0.0, -0.264, -0.796, 0.594, 192.0, 0.0, 0.0, 0.0, 0.0, 0.0, 0.0, 0.0, 0.0, 0.0, 1.677707971830057E9, 0.0, 2023-03-01 13:59:31.830
164.0, 11952.930623642282, 15935.832671622358, 0.0, 0.0, 0.0, 0.0, 0.0, 0.0, -0.264, -0.796, 0.594, 192.0, 0.0, 0.0, 0.0, 0.0, 0.0, 0.0, 0.0, 0.0, 0.0, 1.677707971837924E9, 0.0, 2023-03-01 13:59:31.837
165.0, 11950.136655585367, 15930.982343075555, 0.0, 0.0, 0.0, 0.0, 0.0, 0.0, -0.264, -0.796, 0.594, 192.0, 0.0, 0.0, 0.0, 0.0, 0.0, 0.0, 0.0, 0.0, 0.0, 1.67770797183794E9, 0.0, 2023-03-01 13:59:31.837
166.0, 11956.350440543943, 15934.737436144047, 0.0, 0.0, 0.0, 0.0, 0.0, 0.0, -0.264, -0.796, 0.594, 192.0, 0.0, 0.0, 0.0, 0.0, 0.0, 0.0, 0.0, 0.0, 0.0, 1.677707971845416E9, 0.0, 2023-03-01 13:59:31.845
167.0, 11956.953937644237, 15934.424511721672, 0.0, 0.0, 0.0, 0.0, 0.0, 0.0, -0.264, -0.796, 0.594, 192.0, 0.0, 0.0, 0.0, 0.0, 0.0, 0.0, 0.0, 0.0, 0.0, 1.67770797185299E9, 0.0, 2023-03-01 13:59:31.852
168.0, 11955.679888210285, 15930.512956441995, 0.0, 0.0, 0.0, 0.0, 0.0, 0.0, -0.264, -0.796, 0.594, 192.0, 0.0, 0.0, 0.0, 0.0, 0.0, 0.0, 0.0, 0.0, 0.0, 1.677707971853006E9, 0.0, 2023-03-01 13:59:31.853
169.0, 11961.156065601834, 15929.507127941506, 0.0, 0.0, 0.0, 0.0, 0.0, 0.0, -0.264, -0.796, 0.594, 192.0, 0.0, 0.0, 0.0, 0.0, 0.0, 0.0, 0.0, 0.0, 0.0, 1.677707971859674E9, 0.0, 2023-03-01 13:59:31.859
170.0, 11976.869341953916, 15939.654819924215, 0.0, 0.0, 0.0, 0.0, 0.0, 0.0, -0.256, -0.794, 0.59, 192.0, 248.0, 0.0, 231.0, 48.0, 18.0, 112.0, 0.0, 0.0, 0.0, 1.677707971859689E9, 0.0, 2023-03-01 13:59:31.859
171.0, 11980.22210362221, 15945.533328715961, 0.0, 0.0, 0.0, 0.0, 0.0, 0.0, -0.256, -0.794, 0.59, 192.0, 0.0, 0.0, 0.0, 0.0, 0.0, 0.0, 0.0, 0.0, 0.0, 1.677707971867648E9, 0.0, 2023-03-01 13:59:31.867
172.0, 11953.020030620102, 15923.472156938573, 0.0, 0.0, 0.0, 0.0, 0.0, 0.0, -0.256, -0.794, 0.59, 192.0, 0.0, 0.0, 0.0, 0.0, 0.0, 0.0, 0.0, 0.0, 0.0, 1.677707971867657E9, 0.0, 2023-03-01 13:59:31.867
173.0, 11947.990888117658, 15911.782194588448, 0.0, 0.0, 0.0, 0.0, 0.0, 0.0, -0.256, -0.794, 0.59, 192.0, 0.0, 0.0, 0.0, 0.0, 0.0, 0.0, 0.0, 0.0, 0.0, 1.677707971875621E9, 0.0, 2023-03-01 13:59:31.875
174.0, 11953.444713764753, 15918.063034780389, 0.0, 0.0, 0.0, 0.0, 0.0, 0.0, -0.256, -0.794, 0.59, 192.0, 0.0, 0.0, 0.0, 0.0, 0.0, 0.0, 0.0, 0.0, 0.0, 1.677707971875636E9, 0.0, 2023-03-01 13:59:31.875
175.0, 11950.538986985564, 15914.19618298962, 0.0, 0.0, 0.0, 0.0, 0.0, 0.0, -0.256, -0.794, 0.59, 192.0, 0.0, 0.0, 0.0, 0.0, 0.0, 0.0, 0.0, 0.0, 0.0, 1.67770797188285E9, 0.0, 2023-03-01 13:59:31.882
176.0, 11946.538024728063, 15912.072767266365, 0.0, 0.0, 0.0, 0.0, 0.0, 0.0, -0.256, -0.794, 0.59, 192.0, 0.0, 0.0, 0.0, 0.0, 0.0, 0.0, 0.0, 0.0, 0.0, 1.677707971882864E9, 0.0, 2023-03-01 13:59:31.882
177.0, 11938.69256242425, 15910.999883532511, 0.0, 0.0, 0.0, 0.0, 0.0, 0.0, -0.256, -0.794, 0.59, 192.0, 0.0, 0.0, 0.0, 0.0, 0.0, 0.0, 0.0, 0.0, 0.0, 1.677707971890267E9, 0.0, 2023-03-01 13:59:31.890
178.0, 11943.677001437783, 15916.073729523867, 0.0, 0.0, 0.0, 0.0, 0.0, 0.0, -0.256, -0.794, 0.59, 192.0, 0.0, 0.0, 0.0, 0.0, 0.0, 0.0, 0.0, 0.0, 0.0, 1.677707971890283E9, 0.0, 2023-03-01 13:59:31.890
179.0, 11949.26493755161, 15918.599476647316, 0.0, 0.0, 0.0, 0.0, 0.0, 0.0, -0.256, -0.794, 0.59, 192.0, 0.0, 0.0, 0.0, 0.0, 0.0, 0.0, 0.0, 0.0, 0.0, 1.677707971898352E9, 0.0, 2023-03-01 13:59:31.898
180.0, 11947.74501892865, 15916.788985346437, 0.0, 0.0, 0.0, 0.0, 0.0, 0.0, -0.262, -0.798, 0.59, 192.0, 247.0, 208.0, 231.0, 16.0, 18.0, 112.0, 0.0, 0.0, 0.0, 1.67770797189837E9, 0.0, 2023-03-01 13:59:31.898
181.0, 11948.482626495676, 15917.660703380192, 0.0, 0.0, 0.0, 0.0, 0.0, 0.0, -0.262, -0.798, 0.59, 192.0, 0.0, 0.0, 0.0, 0.0, 0.0, 0.0, 0.0, 0.0, 0.0, 1.677707971905347E9, 0.0, 2023-03-01 13:59:31.905
182.0, 11946.359210772422, 15915.246714979019, 0.0, 0.0, 0.0, 0.0, 0.0, 0.0, -0.262, -0.798, 0.59, 192.0, 0.0, 0.0, 0.0, 0.0, 0.0, 0.0, 0.0, 0.0, 0.0, 1.677707971912591E9, 0.0, 2023-03-01 13:59:31.912
183.0, 11952.327126541988, 15918.711235369592, 0.0, 0.0, 0.0, 0.0, 0.0, 0.0, -0.262, -0.798, 0.59, 192.0, 0.0, 0.0, 0.0, 0.0, 0.0, 0.0, 0.0, 0.0, 0.0, 1.677707971912599E9, 0.0, 2023-03-01 13:59:31.912
184.0, 11955.501074254642, 15920.588781903838, 0.0, 0.0, 0.0, 0.0, 0.0, 0.0, -0.262, -0.798, 0.59, 192.0, 0.0, 0.0, 0.0, 0.0, 0.0, 0.0, 0.0, 0.0, 0.0, 1.677707971920032E9, 0.0, 2023-03-01 13:59:31.920
185.0, 11951.053077108036, 15918.443014436129, 0.0, 0.0, 0.0, 0.0, 0.0, 0.0, -0.262, -0.798, 0.59, 192.0, 0.0, 0.0, 0.0, 0.0, 0.0, 0.0, 0.0, 0.0, 0.0, 1.677707971920051E9, 0.0, 2023-03-01 13:59:31.920
186.0, 11948.437923006764, 15917.325427213364, 0.0, 0.0, 0.0, 0.0, 0.0, 0.0, -0.262, -0.798, 0.59, 192.0, 0.0, 0.0, 0.0, 0.0, 0.0, 0.0, 0.0, 0.0, 0.0, 1.677707971928129E9, 0.0, 2023-03-01 13:59:31.928
187.0, 11956.372792288399, 15921.594610404327, 0.0, 0.0, 0.0, 0.0, 0.0, 0.0, -0.262, -0.798, 0.59, 192.0, 0.0, 0.0, 0.0, 0.0, 0.0, 0.0, 0.0, 0.0, 0.0, 1.677707971928145E9, 0.0, 2023-03-01 13:59:31.928
188.0, 11951.254242808134, 15919.739415614536, 0.0, 0.0, 0.0, 0.0, 0.0, 0.0, -0.262, -0.798, 0.59, 192.0, 0.0, 0.0, 0.0, 0.0, 0.0, 0.0, 0.0, 0.0, 0.0, 1.677707971935772E9, 0.0, 2023-03-01 13:59:31.935
189.0, 11947.432094506275, 15919.113566769787, 0.0, 0.0, 0.0, 0.0, 0.0, 0.0, -0.262, -0.798, 0.59, 192.0, 0.0, 0.0, 0.0, 0.0, 0.0, 0.0, 0.0, 0.0, 0.0, 1.677707971935788E9, 0.0, 2023-03-01 13:59:31.935
190.0, 11943.74405667115, 15917.325427213364, 0.0, 0.0, 0.0, 0.0, 0.0, 0.0, -0.252, -0.796, 0.59, 192.0, 248.0, 32.0, 231.0, 32.0, 18.0, 112.0, 0.0, 0.0, 0.0, 1.677707971943246E9, 0.0, 2023-03-01 13:59:31.943
191.0, 11945.93452762777, 15916.230191735052, 0.0, 0.0, 0.0, 0.0, 0.0, 0.0, -0.252, -0.796, 0.59, 192.0, 0.0, 0.0, 0.0, 0.0, 0.0, 0.0, 0.0, 0.0, 0.0, 1.677707971943258E9, 0.0, 2023-03-01 13:59:31.943
192.0, 11950.449580007742, 15915.91726731268, 0.0, 0.0, 0.0, 0.0, 0.0, 0.0, -0.252, -0.796, 0.59, 192.0, 0.0, 0.0, 0.0, 0.0, 0.0, 0.0, 0.0, 0.0, 0.0, 1.677707971950525E9, 0.0, 2023-03-01 13:59:31.950
193.0, 11944.504015982631, 15913.547982400416, 0.0, 0.0, 0.0, 0.0, 0.0, 0.0, -0.252, -0.796, 0.59, 192.0, 0.0, 0.0, 0.0, 0.0, 0.0, 0.0, 0.0, 0.0, 0.0, 1.677707971950534E9, 0.0, 2023-03-01 13:59:31.950
194.0, 11943.677001437783, 15912.475098666562, 0.0, 0.0, 0.0, 0.0, 0.0, 0.0, -0.252, -0.796, 0.59, 192.0, 0.0, 0.0, 0.0, 0.0, 0.0, 0.0, 0.0, 0.0, 0.0, 1.677707971957909E9, 0.0, 2023-03-01 13:59:31.957
195.0, 11947.588556717463, 15915.716101612581, 0.0, 0.0, 0.0, 0.0, 0.0, 0.0, -0.252, -0.796, 0.59, 192.0, 0.0, 0.0, 0.0, 0.0, 0.0, 0.0, 0.0, 0.0, 0.0, 1.677707971957918E9, 0.0, 2023-03-01 13:59:31.957
196.0, 11953.668231209307, 15923.136880771743, 0.0, 0.0, 0.0, 0.0, 0.0, 0.0, -0.252, -0.796, 0.59, 192.0, 0.0, 0.0, 0.0, 0.0, 0.0, 0.0, 0.0, 0.0, 0.0, 1.677707971964965E9, 0.0, 2023-03-01 13:59:31.964
197.0, 11950.002545118636, 15924.76855811698, 0.0, 0.0, 0.0, 0.0, 0.0, 0.0, -0.252, -0.796, 0.59, 192.0, 0.0, 0.0, 0.0, 0.0, 0.0, 0.0, 0.0, 0.0, 0.0, 1.677707971964984E9, 0.0, 2023-03-01 13:59:31.964
198.0, 11949.55551022953, 15925.014427305989, 0.0, 0.0, 0.0, 0.0, 0.0, 0.0, -0.252, -0.796, 0.59, 192.0, 0.0, 0.0, 0.0, 0.0, 0.0, 0.0, 0.0, 0.0, 0.0, 1.67770797197289E9, 0.0, 2023-03-01 13:59:31.972
199.0, 11954.338783542966, 15929.373017474774, 0.0, 0.0, 0.0, 0.0, 0.0, 0.0, -0.252, -0.796, 0.59, 192.0, 0.0, 0.0, 0.0, 0.0, 0.0, 0.0, 0.0, 0.0, 0.0, 1.677707971979961E9, 0.0, 2023-03-01 13:59:31.979
200.0, 11959.74790570115, 15933.262221009998, 0.0, 0.0, 0.0, 0.0, 0.0, 0.0, -0.26, -0.796, 0.594, 192.0, 247.0, 224.0, 231.0, 32.0, 18.0, 144.0, 0.0, 0.0, 0.0, 1.677707971979975E9, 0.0, 2023-03-01 13:59:31.979
201.0, 11953.109437597925, 15932.166985531687, 0.0, 0.0, 0.0, 0.0, 0.0, 0.0, -0.26, -0.796, 0.594, 192.0, 0.0, 0.0, 0.0, 0.0, 0.0, 0.0, 0.0, 0.0, 0.0, 1.67770797198801E9, 0.0, 2023-03-01 13:59:31.988
202.0, 11945.062809594014, 15928.970686074577, 0.0, 0.0, 0.0, 0.0, 0.0, 0.0, -0.26, -0.796, 0.594, 192.0, 0.0, 0.0, 0.0, 0.0, 0.0, 0.0, 0.0, 0.0, 0.0, 1.67770797198802E9, 0.0, 2023-03-01 13:59:31.988
203.0, 11946.873300894893, 15929.596534919327, 0.0, 0.0, 0.0, 0.0, 0.0, 0.0, -0.26, -0.796, 0.594, 192.0, 0.0, 0.0, 0.0, 0.0, 0.0, 0.0, 0.0, 0.0, 0.0, 1.677707971995539E9, 0.0, 2023-03-01 13:59:31.995
204.0, 11949.55551022953, 15928.031912807455, 0.0, 0.0, 0.0, 0.0, 0.0, 0.0, -0.26, -0.796, 0.594, 192.0, 0.0, 0.0, 0.0, 0.0, 0.0, 0.0, 0.0, 0.0, 0.0, 1.677707971995549E9, 0.0, 2023-03-01 13:59:31.995
205.0, 11948.482626495676, 15928.210726763098, 0.0, 0.0, 0.0, 0.0, 0.0, 0.0, -0.26, -0.796, 0.594, 192.0, 0.0, 0.0, 0.0, 0.0, 0.0, 0.0, 0.0, 0.0, 0.0, 1.677707972003494E9, 0.0, 2023-03-01 13:59:32.003
206.0, 11942.380600259376, 15925.997904062022, 0.0, 0.0, 0.0, 0.0, 0.0, 0.0, -0.26, -0.796, 0.594, 192.0, 0.0, 0.0, 0.0, 0.0, 0.0, 0.0, 0.0, 0.0, 0.0, 1.677707972003512E9, 0.0, 2023-03-01 13:59:32.003
207.0, 11942.738228170661, 15925.930848828657, 0.0, 0.0, 0.0, 0.0, 0.0, 0.0, -0.26, -0.796, 0.594, 192.0, 0.0, 0.0, 0.0, 0.0, 0.0, 0.0, 0.0, 0.0, 0.0, 1.677707972010156E9, 0.0, 2023-03-01 13:59:32.010
208.0, 11947.499149739642, 15930.803529119914, 0.0, 0.0, 0.0, 0.0, 0.0, 0.0, -0.26, -0.796, 0.594, 192.0, 0.0, 0.0, 0.0, 0.0, 0.0, 0.0, 0.0, 0.0, 0.0, 1.677707972010172E9, 0.0, 2023-03-01 13:59:32.010
209.0, 11939.094893824446, 15923.539212171938, 0.0, 0.0, 0.0, 0.0, 0.0, 0.0, -0.26, -0.796, 0.594, 192.0, 0.0, 0.0, 0.0, 0.0, 0.0, 0.0, 0.0, 0.0, 0.0, 1.67770797201821E9, 0.0, 2023-03-01 13:59:32.018
210.0, 11937.686733923761, 15923.427453449662, 0.0, 0.0, 0.0, 0.0, 0.0, 0.0, -0.262, -0.798, 0.592, 192.0, 247.0, 208.0, 231.0, 16.0, 18.0, 128.0, 0.0, 0.0, 0.0, 1.677707972018228E9, 0.0, 2023-03-01 13:59:32.018
211.0, 11937.46321647921, 15922.287514482441, 0.0, 0.0, 0.0, 0.0, 0.0, 0.0, -0.262, -0.798, 0.592, 192.0, 0.0, 0.0, 0.0, 0.0, 0.0, 0.0, 0.0, 0.0, 0.0, 1.677707972026231E9, 0.0, 2023-03-01 13:59:32.026
212.0, 11947.1191700839, 15927.316656984885, 0.0, 0.0, 0.0, 0.0, 0.0, 0.0, -0.262, -0.798, 0.592, 192.0, 0.0, 0.0, 0.0, 0.0, 0.0, 0.0, 0.0, 0.0, 0.0, 1.677707972026246E9, 0.0, 2023-03-01 13:59:32.026
213.0, 11952.617699219907, 15930.468252953084, 0.0, 0.0, 0.0, 0.0, 0.0, 0.0, -0.262, -0.798, 0.592, 192.0, 0.0, 0.0, 0.0, 0.0, 0.0, 0.0, 0.0, 0.0, 0.0, 1.677707972033285E9, 0.0, 2023-03-01 13:59:32.033
214.0, 11946.403914261331, 15927.562526173893, 0.0, 0.0, 0.0, 0.0, 0.0, 0.0, -0.262, -0.798, 0.592, 192.0, 0.0, 0.0, 0.0, 0.0, 0.0, 0.0, 0.0, 0.0, 0.0, 1.677707972039766E9, 0.0, 2023-03-01 13:59:32.039
215.0, 11950.382524774377, 15933.239869265542, 0.0, 0.0, 0.0, 0.0, 0.0, 0.0, -0.262, -0.798, 0.592, 192.0, 0.0, 0.0, 0.0, 0.0, 0.0, 0.0, 0.0, 0.0, 0.0, 1.677707972039774E9, 0.0, 2023-03-01 13:59:32.039
216.0, 11961.357231301932, 15941.57706994737, 0.0, 0.0, 0.0, 0.0, 0.0, 0.0, -0.262, -0.798, 0.592, 192.0, 0.0, 0.0, 0.0, 0.0, 0.0, 0.0, 0.0, 0.0, 0.0, 1.677707972047919E9, 0.0, 2023-03-01 13:59:32.047
217.0, 11953.020030620102, 15937.218479778587, 0.0, 0.0, 0.0, 0.0, 0.0, 0.0, -0.262, -0.798, 0.592, 192.0, 0.0, 0.0, 0.0, 0.0, 0.0, 0.0, 0.0, 0.0, 0.0, 1.677707972047937E9, 0.0, 2023-03-01 13:59:32.047
218.0, 11936.524443212085, 15927.741340129536, 0.0, 0.0, 0.0, 0.0, 0.0, 0.0, -0.262, -0.798, 0.592, 192.0, 0.0, 0.0, 0.0, 0.0, 0.0, 0.0, 0.0, 0.0, 0.0, 1.677707972055838E9, 0.0, 2023-03-01 13:59:32.055
219.0, 11931.651762920828, 15925.528517428462, 0.0, 0.0, 0.0, 0.0, 0.0, 0.0, -0.262, -0.798, 0.592, 192.0, 0.0, 0.0, 0.0, 0.0, 0.0, 0.0, 0.0, 0.0, 0.0, 1.677707972055861E9, 0.0, 2023-03-01 13:59:32.055
220.0, 11939.296059524544, 15929.44007270814, 0.0, 0.0, 0.0, 0.0, 0.0, 0.0, -0.262, -0.798, 0.592, 192.0, 0.0, 0.0, 0.0, 0.0, 0.0, 0.0, 0.0, 0.0, 0.0, 1.677707972062923E9, 0.0, 2023-03-01 13:59:32.062
221.0, 11945.643954949852, 15930.624715164271, 0.0, 0.0, 0.0, 0.0, 0.0, 0.0, -0.258, -0.794, 0.59, 192.0, 247.0, 240.0, 231.0, 48.0, 18.0, 112.0, 0.0, 0.0, 0.0, 1.677707972062941E9, 0.0, 2023-03-01 13:59:32.062
222.0, 11936.569146700996, 15926.936677329146, 0.0, 0.0, 0.0, 0.0, 0.0, 0.0, -0.258, -0.794, 0.59, 192.0, 0.0, 0.0, 0.0, 0.0, 0.0, 0.0, 0.0, 0.0, 0.0, 1.677707972070457E9, 0.0, 2023-03-01 13:59:32.070
223.0, 11939.921908369293, 15930.401197719719, 0.0, 0.0, 0.0, 0.0, 0.0, 0.0, -0.258, -0.794, 0.59, 192.0, 0.0, 0.0, 0.0, 0.0, 0.0, 0.0, 0.0, 0.0, 0.0, 1.677707972070468E9, 0.0, 2023-03-01 13:59:32.070
224.0, 11944.101684582434, 15931.943468087135, 0.0, 0.0, 0.0, 0.0, 0.0, 0.0, -0.258, -0.794, 0.59, 192.0, 0.0, 0.0, 0.0, 0.0, 0.0, 0.0, 0.0, 0.0, 0.0, 1.677707972078961E9, 0.0, 2023-03-01 13:59:32.078
225.0, 11947.1191700839, 15934.089235554844, 0.0, 0.0, 0.0, 0.0, 0.0, 0.0, -0.258, -0.794, 0.59, 192.0, 0.0, 0.0, 0.0, 0.0, 0.0, 0.0, 0.0, 0.0, 0.0, 1.677707972078973E9, 0.0, 2023-03-01 13:59:32.078
226.0, 11947.096818339447, 15934.871546610779, 0.0, 0.0, 0.0, 0.0, 0.0, 0.0, -0.258, -0.794, 0.59, 192.0, 0.0, 0.0, 0.0, 0.0, 0.0, 0.0, 0.0, 0.0, 0.0, 1.677707972085522E9, 0.0, 2023-03-01 13:59:32.085
227.0, 11940.972440358692, 15932.43520646515, 0.0, 0.0, 0.0, 0.0, 0.0, 0.0, -0.258, -0.794, 0.59, 192.0, 0.0, 0.0, 0.0, 0.0, 0.0, 0.0, 0.0, 0.0, 0.0, 1.67770797208553E9, 0.0, 2023-03-01 13:59:32.085
228.0, 11945.59925146094, 15937.084369311855, 0.0, 0.0, 0.0, 0.0, 0.0, 0.0, -0.258, -0.794, 0.59, 192.0, 0.0, 0.0, 0.0, 0.0, 0.0, 0.0, 0.0, 0.0, 0.0, 1.677707972092131E9, 0.0, 2023-03-01 13:59:32.092
229.0, 11946.918004383804, 15936.704389656114, 0.0, 0.0, 0.0, 0.0, 0.0, 0.0, -0.258, -0.794, 0.59, 192.0, 0.0, 0.0, 0.0, 0.0, 0.0, 0.0, 0.0, 0.0, 0.0, 1.677707972099973E9, 0.0, 2023-03-01 13:59:32.099
230.0, 11946.247452050144, 15938.20195653462, 0.0, 0.0, 0.0, 0.0, 0.0, 0.0, -0.258, -0.794, 0.59, 192.0, 0.0, 0.0, 0.0, 0.0, 0.0, 0.0, 0.0, 0.0, 0.0, 1.677707972100013E9, 0.0, 2023-03-01 13:59:32.100
231.0, 11946.739190428161, 15940.05715132441, 0.0, 0.0, 0.0, 0.0, 0.0, 0.0, -0.256, -0.798, 0.592, 192.0, 248.0, 0.0, 231.0, 16.0, 18.0, 128.0, 0.0, 0.0, 0.0, 1.677707972108093E9, 0.0, 2023-03-01 13:59:32.108
232.0, 11944.816940405004, 15938.090197812344, 0.0, 0.0, 0.0, 0.0, 0.0, 0.0, -0.256, -0.798, 0.592, 192.0, 0.0, 0.0, 0.0, 0.0, 0.0, 0.0, 0.0, 0.0, 0.0, 1.677707972108111E9, 0.0, 2023-03-01 13:59:32.108
233.0, 11950.002545118636, 15938.716046657091, 0.0, 0.0, 0.0, 0.0, 0.0, 0.0, -0.256, -0.798, 0.592, 192.0, 0.0, 0.0, 0.0, 0.0, 0.0, 0.0, 0.0, 0.0, 0.0, 1.677707972115263E9, 0.0, 2023-03-01 13:59:32.115
234.0, 11944.392257260353, 15935.25152626652, 0.0, 0.0, 0.0, 0.0, 0.0, 0.0, -0.256, -0.798, 0.592, 192.0, 0.0, 0.0, 0.0, 0.0, 0.0, 0.0, 0.0, 0.0, 0.0, 1.677707972115274E9, 0.0, 2023-03-01 13:59:32.115
235.0, 11942.2688415371, 15936.8608518673, 0.0, 0.0, 0.0, 0.0, 0.0, 0.0, -0.256, -0.798, 0.592, 192.0, 0.0, 0.0, 0.0, 0.0, 0.0, 0.0, 0.0, 0.0, 0.0, 1.677707972122686E9, 0.0, 2023-03-01 13:59:32.122
236.0, 11944.727533427184, 15940.660648424704, 0.0, 0.0, 0.0, 0.0, 0.0, 0.0, -0.256, -0.798, 0.592, 192.0, 0.0, 0.0, 0.0, 0.0, 0.0, 0.0, 0.0, 0.0, 0.0, 1.677707972122699E9, 0.0, 2023-03-01 13:59:32.122
237.0, 11952.84121666446, 15944.996886849034, 0.0, 0.0, 0.0, 0.0, 0.0, 0.0, -0.256, -0.798, 0.592, 192.0, 0.0, 0.0, 0.0, 0.0, 0.0, 0.0, 0.0, 0.0, 0.0, 1.677707972130709E9, 0.0, 2023-03-01 13:59:32.130
238.0, 11956.261033566123, 15945.958011860612, 0.0, 0.0, 0.0, 0.0, 0.0, 0.0, -0.256, -0.798, 0.592, 192.0, 0.0, 0.0, 0.0, 0.0, 0.0, 0.0, 0.0, 0.0, 0.0, 1.677707972130718E9, 0.0, 2023-03-01 13:59:32.130
239.0, 11955.501074254642, 15947.008543850012, 0.0, 0.0, 0.0, 0.0, 0.0, 0.0, -0.256, -0.798, 0.592, 192.0, 0.0, 0.0, 0.0, 0.0, 0.0, 0.0, 0.0, 0.0, 0.0, 1.677707972138787E9, 0.0, 2023-03-01 13:59:32.138
240.0, 11952.617699219907, 15945.041590337943, 0.0, 0.0, 0.0, 0.0, 0.0, 0.0, -0.256, -0.798, 0.592, 192.0, 0.0, 0.0, 0.0, 0.0, 0.0, 0.0, 0.0, 0.0, 0.0, 1.677707972138805E9, 0.0, 2023-03-01 13:59:32.138
241.0, 11955.143446343356, 15946.427398494174, 0.0, 0.0, 0.0, 0.0, 0.0, 0.0, -0.256, -0.796, 0.588, 192.0, 248.0, 0.0, 231.0, 32.0, 18.0, 96.0, 0.0, 0.0, 0.0, 1.677707972145263E9, 0.0, 2023-03-01 13:59:32.145
242.0, 11956.79747543305, 15946.427398494174, 0.0, 0.0, 0.0, 0.0, 0.0, 0.0, -0.256, -0.796, 0.588, 192.0, 0.0, 0.0, 0.0, 0.0, 0.0, 0.0, 0.0, 0.0, 0.0, 1.677707972145281E9, 0.0, 2023-03-01 13:59:32.145
243.0, 11952.55064398654, 15947.321468272385, 0.0, 0.0, 0.0, 0.0, 0.0, 0.0, -0.256, -0.796, 0.588, 192.0, 0.0, 0.0, 0.0, 0.0, 0.0, 0.0, 0.0, 0.0, 0.0, 1.677707972152331E9, 0.0, 2023-03-01 13:59:32.152
244.0, 11953.444713764753, 15948.327296772874, 0.0, 0.0, 0.0, 0.0, 0.0, 0.0, -0.256, -0.796, 0.588, 192.0, 0.0, 0.0, 0.0, 0.0, 0.0, 0.0, 0.0, 0.0, 0.0, 1.677707972161066E9, 0.0, 2023-03-01 13:59:32.161
245.0, 11956.037516121569, 15948.372000261785, 0.0, 0.0, 0.0, 0.0, 0.0, 0.0, -0.256, -0.796, 0.588, 192.0, 0.0, 0.0, 0.0, 0.0, 0.0, 0.0, 0.0, 0.0, 0.0, 1.677707972161081E9, 0.0, 2023-03-01 13:59:32.161
246.0, 11964.978213903692, 15952.887052641756, 0.0, 0.0, 0.0, 0.0, 0.0, 0.0, -0.256, -0.796, 0.588, 192.0, 0.0, 0.0, 0.0, 0.0, 0.0, 0.0, 0.0, 0.0, 0.0, 1.677707972168382E9, 0.0, 2023-03-01 13:59:32.168
247.0, 11962.94420515826, 15951.456540996616, 0.0, 0.0, 0.0, 0.0, 0.0, 0.0, -0.256, -0.796, 0.588, 192.0, 0.0, 0.0, 0.0, 0.0, 0.0, 0.0, 0.0, 0.0, 0.0, 1.677707972168393E9, 0.0, 2023-03-01 13:59:32.168
248.0, 11963.570054003008, 15951.389485763251, 0.0, 0.0, 0.0, 0.0, 0.0, 0.0, -0.256, -0.796, 0.588, 192.0, 0.0, 0.0, 0.0, 0.0, 0.0, 0.0, 0.0, 0.0, 0.0, 1.677707972174935E9, 0.0, 2023-03-01 13:59:32.174
249.0, 11961.066658624013, 15951.121264829788, 0.0, 0.0, 0.0, 0.0, 0.0, 0.0, -0.256, -0.796, 0.588, 192.0, 0.0, 0.0, 0.0, 0.0, 0.0, 0.0, 0.0, 0.0, 0.0, 1.677707972174943E9, 0.0, 2023-03-01 13:59:32.174
250.0, 11965.581711003984, 15952.797645663935, 0.0, 0.0, 0.0, 0.0, 0.0, 0.0, -0.256, -0.796, 0.588, 192.0, 0.0, 0.0, 0.0, 0.0, 0.0, 0.0, 0.0, 0.0, 0.0, 1.677707972183023E9, 0.0, 2023-03-01 13:59:32.183
251.0, 11964.061792381024, 15949.82486365138, 0.0, 0.0, 0.0, 0.0, 0.0, 0.0, -0.254, -0.798, 0.586, 192.0, 248.0, 16.0, 231.0, 16.0, 18.0, 80.0, 0.0, 0.0, 0.0, 1.677707972183039E9, 0.0, 2023-03-01 13:59:32.183
252.0, 11954.785818432072, 15943.96870660409, 0.0, 0.0, 0.0, 0.0, 0.0, 0.0, -0.254, -0.798, 0.586, 192.0, 0.0, 0.0, 0.0, 0.0, 0.0, 0.0, 0.0, 0.0, 0.0, 1.677707972191065E9, 0.0, 2023-03-01 13:59:32.191
253.0, 11955.076391109991, 15944.34868625983, 0.0, 0.0, 0.0, 0.0, 0.0, 0.0, -0.254, -0.798, 0.586, 192.0, 0.0, 0.0, 0.0, 0.0, 0.0, 0.0, 0.0, 0.0, 0.0, 1.677707972191081E9, 0.0, 2023-03-01 13:59:32.191
254.0, 11956.976289388693, 15946.382695005263, 0.0, 0.0, 0.0, 0.0, 0.0, 0.0, -0.254, -0.798, 0.586, 192.0, 0.0, 0.0, 0.0, 0.0, 0.0, 0.0, 0.0, 0.0, 0.0, 1.677707972198245E9, 0.0, 2023-03-01 13:59:32.198
255.0, 11953.958803887226, 15944.639258937748, 0.0, 0.0, 0.0, 0.0, 0.0, 0.0, -0.254, -0.798, 0.586, 192.0, 0.0, 0.0, 0.0, 0.0, 0.0, 0.0, 0.0, 0.0, 0.0, 1.67770797219826E9, 0.0, 2023-03-01 13:59:32.198
0.0, 11952.774161431094, 15946.025067093977, 0.0, 0.0, 0.0, 0.0, 0.0, 0.0, -0.254, -0.798, 0.586, 192.0, 0.0, 0.0, 0.0, 0.0, 0.0, 0.0, 0.0, 0.0, 0.0, 1.677707972205577E9, 0.0, 2023-03-01 13:59:32.205
1.0, 11961.960728402226, 15952.909404386211, 0.0, 0.0, 0.0, 0.0, 0.0, 0.0, -0.254, -0.798, 0.586, 192.0, 0.0, 0.0, 0.0, 0.0, 0.0, 0.0, 0.0, 0.0, 0.0, 1.677707972205587E9, 0.0, 2023-03-01 13:59:32.205
2.0, 11963.74886795865, 15953.803474164424, 0.0, 0.0, 0.0, 0.0, 0.0, 0.0, -0.254, -0.798, 0.586, 192.0, 0.0, 0.0, 0.0, 0.0, 0.0, 0.0, 0.0, 0.0, 0.0, 1.677707972212619E9, 0.0, 2023-03-01 13:59:32.212
3.0, 11961.84896967995, 15954.429323009173, 0.0, 0.0, 0.0, 0.0, 0.0, 0.0, -0.254, -0.798, 0.586, 192.0, 0.0, 0.0, 0.0, 0.0, 0.0, 0.0, 0.0, 0.0, 0.0, 1.677707972212632E9, 0.0, 2023-03-01 13:59:32.212
4.0, 11958.540911500564, 15954.094046842343, 0.0, 0.0, 0.0, 0.0, 0.0, 0.0, -0.254, -0.798, 0.586, 192.0, 0.0, 0.0, 0.0, 0.0, 0.0, 0.0, 0.0, 0.0, 0.0, 1.677707972220646E9, 0.0, 2023-03-01 13:59:32.220
5.0, 11958.607966733929, 15953.579956719872, 0.0, 0.0, 0.0, 0.0, 0.0, 0.0, -0.252, -0.792, 0.594, 192.0, 248.0, 32.0, 231.0, 64.0, 18.0, 144.0, 0.0, 0.0, 0.0, 1.677707972227934E9, 0.0, 2023-03-01 13:59:32.227
6.0, 11958.965594645215, 15949.44488399564, 0.0, 0.0, 0.0, 0.0, 0.0, 0.0, -0.252, -0.792, 0.594, 192.0, 0.0, 0.0, 0.0, 0.0, 0.0, 0.0, 0.0, 0.0, 0.0, 1.67770797222795E9, 0.0, 2023-03-01 13:59:32.227
7.0, 11954.763466687617, 15944.728665915569, 0.0, 0.0, 0.0, 0.0, 0.0, 0.0, -0.252, -0.792, 0.594, 192.0, 0.0, 0.0, 0.0, 0.0, 0.0, 0.0, 0.0, 0.0, 0.0, 1.677707972235311E9, 0.0, 2023-03-01 13:59:32.235
8.0, 11951.634222463874, 15945.555680460417, 0.0, 0.0, 0.0, 0.0, 0.0, 0.0, -0.252, -0.792, 0.594, 192.0, 0.0, 0.0, 0.0, 0.0, 0.0, 0.0, 0.0, 0.0, 0.0, 1.677707972235327E9, 0.0, 2023-03-01 13:59:32.235
9.0, 11967.816885449516, 15963.77235219149, 0.0, 0.0, 0.0, 0.0, 0.0, 0.0, -0.252, -0.792, 0.594, 192.0, 0.0, 0.0, 0.0, 0.0, 0.0, 0.0, 0.0, 0.0, 0.0, 1.677707972243403E9, 0.0, 2023-03-01 13:59:32.243
10.0, 11994.303702629055, 15979.105648887831, 0.0, 0.0, 0.0, 0.0, 0.0, 0.0, -0.252, -0.792, 0.594, 192.0, 0.0, 0.0, 0.0, 0.0, 0.0, 0.0, 0.0, 0.0, 0.0, 1.67770797224342E9, 0.0, 2023-03-01 13:59:32.243
11.0, 11968.80036220555, 15945.19805254913, 0.0, 0.0, 0.0, 0.0, 0.0, 0.0, -0.252, -0.792, 0.594, 192.0, 0.0, 0.0, 0.0, 0.0, 0.0, 0.0, 0.0, 0.0, 0.0, 1.677707972250479E9, 0.0, 2023-03-01 13:59:32.250
12.0, 11944.772236916095, 15923.181584260654, 0.0, 0.0, 0.0, 0.0, 0.0, 0.0, -0.252, -0.792, 0.594, 192.0, 0.0, 0.0, 0.0, 0.0, 0.0, 0.0, 0.0, 0.0, 0.0, 1.67770797225049E9, 0.0, 2023-03-01 13:59:32.250
13.0, 11958.94324290076, 15936.77144488948, 0.0, 0.0, 0.0, 0.0, 0.0, 0.0, -0.252, -0.792, 0.594, 192.0, 0.0, 0.0, 0.0, 0.0, 0.0, 0.0, 0.0, 0.0, 0.0, 1.677707972257842E9, 0.0, 2023-03-01 13:59:32.257
14.0, 11967.883940682881, 15946.740322916547, 0.0, 0.0, 0.0, 0.0, 0.0, 0.0, -0.252, -0.792, 0.594, 192.0, 0.0, 0.0, 0.0, 0.0, 0.0, 0.0, 0.0, 0.0, 0.0, 1.677707972257855E9, 0.0, 2023-03-01 13:59:32.257
15.0, 11967.03457439358, 15938.91721235719, 0.0, 0.0, 0.0, 0.0, 0.0, 0.0, -0.25, -0.794, 0.594, 192.0, 248.0, 48.0, 231.0, 48.0, 18.0, 144.0, 0.0, 0.0, 0.0, 1.677707972265921E9, 0.0, 2023-03-01 13:59:32.265
16.0, 11963.726516214194, 15932.25639250951, 0.0, 0.0, 0.0, 0.0, 0.0, 0.0, -0.25, -0.794, 0.594, 192.0, 0.0, 0.0, 0.0, 0.0, 0.0, 0.0, 0.0, 0.0, 0.0, 1.677707972265936E9, 0.0, 2023-03-01 13:59:32.265
17.0, 11967.861588938427, 15936.525575700472, 0.0, 0.0, 0.0, 0.0, 0.0, 0.0, -0.25, -0.794, 0.594, 192.0, 0.0, 0.0, 0.0, 0.0, 0.0, 0.0, 0.0, 0.0, 0.0, 1.677707972273889E9, 0.0, 2023-03-01 13:59:32.273
18.0, 11963.950033658748, 15931.138805286742, 0.0, 0.0, 0.0, 0.0, 0.0, 0.0, -0.25, -0.794, 0.594, 192.0, 0.0, 0.0, 0.0, 0.0, 0.0, 0.0, 0.0, 0.0, 0.0, 1.677707972273905E9, 0.0, 2023-03-01 13:59:32.273
19.0, 11971.996661662659, 15935.653857666715, 0.0, 0.0, 0.0, 0.0, 0.0, 0.0, -0.25, -0.794, 0.594, 192.0, 0.0, 0.0, 0.0, 0.0, 0.0, 0.0, 0.0, 0.0, 0.0, 1.677707972280024E9, 0.0, 2023-03-01 13:59:32.280
20.0, 11971.057888395535, 15938.58193619036, 0.0, 0.0, 0.0, 0.0, 0.0, 0.0, -0.25, -0.794, 0.594, 192.0, 0.0, 0.0, 0.0, 0.0, 0.0, 0.0, 0.0, 0.0, 0.0, 1.677707972287528E9, 0.0, 2023-03-01 13:59:32.287
21.0, 11959.166760345312, 15930.557659930904, 0.0, 0.0, 0.0, 0.0, 0.0, 0.0, -0.25, -0.794, 0.594, 192.0, 0.0, 0.0, 0.0, 0.0, 0.0, 0.0, 0.0, 0.0, 0.0, 1.677707972287544E9, 0.0, 2023-03-01 13:59:32.287
22.0, 11960.641975479362, 15930.222383764076, 0.0, 0.0, 0.0, 0.0, 0.0, 0.0, -0.25, -0.794, 0.594, 192.0, 0.0, 0.0, 0.0, 0.0, 0.0, 0.0, 0.0, 0.0, 0.0, 1.677707972295555E9, 0.0, 2023-03-01 13:59:32.295
23.0, 11967.36985056041, 15934.983305333057, 0.0, 0.0, 0.0, 0.0, 0.0, 0.0, -0.25, -0.794, 0.594, 192.0, 0.0, 0.0, 0.0, 0.0, 0.0, 0.0, 0.0, 0.0, 0.0, 1.677707972295569E9, 0.0, 2023-03-01 13:59:32.295
24.0, 11965.51465577062, 15934.648029166226, 0.0, 0.0, 0.0, 0.0, 0.0, 0.0, -0.25, -0.794, 0.594, 192.0, 0.0, 0.0, 0.0, 0.0, 0.0, 0.0, 0.0, 0.0, 0.0, 1.677707972303564E9, 0.0, 2023-03-01 13:59:32.303
25.0, 11963.637109236373, 15933.195165776631, 0.0, 0.0, 0.0, 0.0, 0.0, 0.0, -0.25, -0.796, 0.598, 192.0, 248.0, 48.0, 231.0, 32.0, 18.0, 176.0, 0.0, 0.0, 0.0, 1.677707972303572E9, 0.0, 2023-03-01 13:59:32.303
26.0, 11963.99473714766, 15932.636372165249, 0.0, 0.0, 0.0, 0.0, 0.0, 0.0, -0.25, -0.796, 0.598, 192.0, 0.0, 0.0, 0.0, 0.0, 0.0, 0.0, 0.0, 0.0, 0.0, 1.677707972310257E9, 0.0, 2023-03-01 13:59:32.310
27.0, 11966.2746150821, 15933.999828577022, 0.0, 0.0, 0.0, 0.0, 0.0, 0.0, -0.25, -0.796, 0.598, 192.0, 0.0, 0.0, 0.0, 0.0, 0.0, 0.0, 0.0, 0.0, 0.0, 1.677707972310276E9, 0.0, 2023-03-01 13:59:32.310
28.0, 11967.436905793777, 15937.039665822944, 0.0, 0.0, 0.0, 0.0, 0.0, 0.0, -0.25, -0.796, 0.598, 192.0, 0.0, 0.0, 0.0, 0.0, 0.0, 0.0, 0.0, 0.0, 0.0, 1.677707972318304E9, 0.0, 2023-03-01 13:59:32.318
29.0, 11966.498132526653, 15937.531404200961, 0.0, 0.0, 0.0, 0.0, 0.0, 0.0, -0.25, -0.796, 0.598, 192.0, 0.0, 0.0, 0.0, 0.0, 0.0, 0.0, 0.0, 0.0, 0.0, 1.677707972318328E9, 0.0, 2023-03-01 13:59:32.318
30.0, 11965.402897048343, 15935.899726855723, 0.0, 0.0, 0.0, 0.0, 0.0, 0.0, -0.25, -0.796, 0.598, 192.0, 0.0, 0.0, 0.0, 0.0, 0.0, 0.0, 0.0, 0.0, 0.0, 1.677707972326192E9, 0.0, 2023-03-01 13:59:32.326
31.0, 11968.12980987189, 15938.760750146002, 0.0, 0.0, 0.0, 0.0, 0.0, 0.0, -0.25, -0.796, 0.598, 192.0, 0.0, 0.0, 0.0, 0.0, 0.0, 0.0, 0.0, 0.0, 0.0, 1.67770797232621E9, 0.0, 2023-03-01 13:59:32.326
32.0, 11968.867417438916, 15938.894860612734, 0.0, 0.0, 0.0, 0.0, 0.0, 0.0, -0.25, -0.796, 0.598, 192.0, 0.0, 0.0, 0.0, 0.0, 0.0, 0.0, 0.0, 0.0, 0.0, 1.677707972333258E9, 0.0, 2023-03-01 13:59:32.333
33.0, 11963.905330169837, 15935.96678208909, 0.0, 0.0, 0.0, 0.0, 0.0, 0.0, -0.25, -0.796, 0.598, 192.0, 0.0, 0.0, 0.0, 0.0, 0.0, 0.0, 0.0, 0.0, 0.0, 1.67770797233327E9, 0.0, 2023-03-01 13:59:32.333
34.0, 11963.726516214194, 15935.385636733252, 0.0, 0.0, 0.0, 0.0, 0.0, 0.0, -0.25, -0.796, 0.598, 192.0, 0.0, 0.0, 0.0, 0.0, 0.0, 0.0, 0.0, 0.0, 0.0, 1.677707972339773E9, 0.0, 2023-03-01 13:59:32.339
35.0, 11964.1735511033, 15937.665514667693, 0.0, 0.0, 0.0, 0.0, 0.0, 0.0, -0.262, -0.798, 0.598, 192.0, 247.0, 208.0, 231.0, 16.0, 18.0, 176.0, 0.0, 0.0, 0.0, 1.67770797234784E9, 0.0, 2023-03-01 13:59:32.347
36.0, 11973.069545396513, 15943.67813392617, 0.0, 0.0, 0.0, 0.0, 0.0, 0.0, -0.262, -0.798, 0.598, 192.0, 0.0, 0.0, 0.0, 0.0, 0.0, 0.0, 0.0, 0.0, 0.0, 1.677707972347849E9, 0.0, 2023-03-01 13:59:32.347
37.0, 11970.677908739795, 15940.906517613712, 0.0, 0.0, 0.0, 0.0, 0.0, 0.0, -0.262, -0.798, 0.598, 192.0, 0.0, 0.0, 0.0, 0.0, 0.0, 0.0, 0.0, 0.0, 0.0, 1.677707972355867E9, 0.0, 2023-03-01 13:59:32.355
38.0, 11965.380545303888, 15935.184471033153, 0.0, 0.0, 0.0, 0.0, 0.0, 0.0, -0.262, -0.798, 0.598, 192.0, 0.0, 0.0, 0.0, 0.0, 0.0, 0.0, 0.0, 0.0, 0.0, 1.677707972355896E9, 0.0, 2023-03-01 13:59:32.355
39.0, 11967.74983021615, 15937.263183267498, 0.0, 0.0, 0.0, 0.0, 0.0, 0.0, -0.262, -0.798, 0.598, 192.0, 0.0, 0.0, 0.0, 0.0, 0.0, 0.0, 0.0, 0.0, 0.0, 1.677707972362891E9, 0.0, 2023-03-01 13:59:32.362
40.0, 11967.571016260508, 15937.330238500863, 0.0, 0.0, 0.0, 0.0, 0.0, 0.0, -0.262, -0.798, 0.598, 192.0, 0.0, 0.0, 0.0, 0.0, 0.0, 0.0, 0.0, 0.0, 0.0, 1.677707972362911E9, 0.0, 2023-03-01 13:59:32.362
41.0, 11966.185208104278, 15937.665514667693, 0.0, 0.0, 0.0, 0.0, 0.0, 0.0, -0.262, -0.798, 0.598, 192.0, 0.0, 0.0, 0.0, 0.0, 0.0, 0.0, 0.0, 0.0, 0.0, 1.67770797237052E9, 0.0, 2023-03-01 13:59:32.370
42.0, 11963.27948132509, 15936.302058255918, 0.0, 0.0, 0.0, 0.0, 0.0, 0.0, -0.262, -0.798, 0.598, 192.0, 0.0, 0.0, 0.0, 0.0, 0.0, 0.0, 0.0, 0.0, 0.0, 1.677707972370537E9, 0.0, 2023-03-01 13:59:32.370
43.0, 11964.218254592211, 15938.269011767987, 0.0, 0.0, 0.0, 0.0, 0.0, 0.0, -0.262, -0.798, 0.598, 192.0, 0.0, 0.0, 0.0, 0.0, 0.0, 0.0, 0.0, 0.0, 0.0, 1.677707972378465E9, 0.0, 2023-03-01 13:59:32.378
44.0, 11971.236702351178, 15944.527500215472, 0.0, 0.0, 0.0, 0.0, 0.0, 0.0, -0.262, -0.798, 0.598, 192.0, 0.0, 0.0, 0.0, 0.0, 0.0, 0.0, 0.0, 0.0, 0.0, 1.677707972378476E9, 0.0, 2023-03-01 13:59:32.378
45.0, 11966.22991159319, 15940.258317024509, 0.0, 0.0, 0.0, 0.0, 0.0, 0.0, -0.262, -0.798, 0.598, 192.0, 0.0, 0.0, 0.0, 0.0, 0.0, 0.0, 0.0, 0.0, 0.0, 1.677707972386416E9, 0.0, 2023-03-01 13:59:32.386
46.0, 11968.330975571987, 15942.493491470039, 0.0, 0.0, 0.0, 0.0, 0.0, 0.0, -0.26, -0.804, 0.596, 192.0, 247.0, 224.0, 230.0, 224.0, 18.0, 160.0, 0.0, 0.0, 0.0, 1.677707972386429E9, 0.0, 2023-03-01 13:59:32.386
47.0, 11966.74400171566, 15942.53819495895, 0.0, 0.0, 0.0, 0.0, 0.0, 0.0, -0.26, -0.804, 0.596, 192.0, 0.0, 0.0, 0.0, 0.0, 0.0, 0.0, 0.0, 0.0, 0.0, 1.677707972393048E9, 0.0, 2023-03-01 13:59:32.393
48.0, 11972.019013407114, 15944.192224048642, 0.0, 0.0, 0.0, 0.0, 0.0, 0.0, -0.26, -0.804, 0.596, 192.0, 0.0, 0.0, 0.0, 0.0, 0.0, 0.0, 0.0, 0.0, 0.0, 1.677707972393079E9, 0.0, 2023-03-01 13:59:32.393
49.0, 11972.555455274041, 15945.376866504774, 0.0, 0.0, 0.0, 0.0, 0.0, 0.0, -0.26, -0.804, 0.596, 192.0, 0.0, 0.0, 0.0, 0.0, 0.0, 0.0, 0.0, 0.0, 0.0, 1.67770797240004E9, 0.0, 2023-03-01 13:59:32.400
50.0, 11968.934472672281, 15942.359381003307, 0.0, 0.0, 0.0, 0.0, 0.0, 0.0, -0.26, -0.804, 0.596, 192.0, 0.0, 0.0, 0.0, 0.0, 0.0, 0.0, 0.0, 0.0, 0.0, 1.677707972408075E9, 0.0, 2023-03-01 13:59:32.408
51.0, 11970.02970815059, 15941.778235647469, 0.0, 0.0, 0.0, 0.0, 0.0, 0.0, -0.26, -0.804, 0.596, 192.0, 0.0, 0.0, 0.0, 0.0, 0.0, 0.0, 0.0, 0.0, 0.0, 1.677707972408091E9, 0.0, 2023-03-01 13:59:32.408
52.0, 11973.583635518986, 15942.895822870234, 0.0, 0.0, 0.0, 0.0, 0.0, 0.0, -0.26, -0.804, 0.596, 192.0, 0.0, 0.0, 0.0, 0.0, 0.0, 0.0, 0.0, 0.0, 0.0, 1.677707972416119E9, 0.0, 2023-03-01 13:59:32.416
53.0, 11976.265844853622, 15942.851119381325, 0.0, 0.0, 0.0, 0.0, 0.0, 0.0, -0.26, -0.804, 0.596, 192.0, 0.0, 0.0, 0.0, 0.0, 0.0, 0.0, 0.0, 0.0, 0.0, 1.677707972416134E9, 0.0, 2023-03-01 13:59:32.416
54.0, 11973.002490163148, 15940.660648424704, 0.0, 0.0, 0.0, 0.0, 0.0, 0.0, -0.26, -0.804, 0.596, 192.0, 0.0, 0.0, 0.0, 0.0, 0.0, 0.0, 0.0, 0.0, 0.0, 1.677707972422768E9, 0.0, 2023-03-01 13:59:32.422
55.0, 11970.65555699534, 15939.498357713028, 0.0, 0.0, 0.0, 0.0, 0.0, 0.0, -0.26, -0.804, 0.596, 192.0, 0.0, 0.0, 0.0, 0.0, 0.0, 0.0, 0.0, 0.0, 0.0, 1.677707972422777E9, 0.0, 2023-03-01 13:59:32.422
56.0, 11975.37177507541, 15940.973572847079, 0.0, 0.0, 0.0, 0.0, 0.0, 0.0, -0.256, -0.802, 0.596, 192.0, 248.0, 0.0, 230.0, 240.0, 18.0, 160.0, 0.0, 0.0, 0.0, 1.677707972430728E9, 0.0, 2023-03-01 13:59:32.430
57.0, 11967.906292427337, 15932.926944843168, 0.0, 0.0, 0.0, 0.0, 0.0, 0.0, -0.256, -0.802, 0.596, 192.0, 0.0, 0.0, 0.0, 0.0, 0.0, 0.0, 0.0, 0.0, 0.0, 1.677707972430742E9, 0.0, 2023-03-01 13:59:32.430
58.0, 11965.469952281708, 15930.49060469754, 0.0, 0.0, 0.0, 0.0, 0.0, 0.0, -0.256, -0.802, 0.596, 192.0, 0.0, 0.0, 0.0, 0.0, 0.0, 0.0, 0.0, 0.0, 0.0, 1.677707972438664E9, 0.0, 2023-03-01 13:59:32.438
59.0, 11960.552568501542, 15928.814223863392, 0.0, 0.0, 0.0, 0.0, 0.0, 0.0, -0.256, -0.802, 0.596, 192.0, 0.0, 0.0, 0.0, 0.0, 0.0, 0.0, 0.0, 0.0, 0.0, 1.677707972438675E9, 0.0, 2023-03-01 13:59:32.438
60.0, 11962.899501669348, 15927.316656984885, 0.0, 0.0, 0.0, 0.0, 0.0, 0.0, -0.256, -0.802, 0.596, 192.0, 0.0, 0.0, 0.0, 0.0, 0.0, 0.0, 0.0, 0.0, 0.0, 1.677707972445934E9, 0.0, 2023-03-01 13:59:32.445
61.0, 11968.666251738818, 15930.714122142092, 0.0, 0.0, 0.0, 0.0, 0.0, 0.0, -0.256, -0.802, 0.596, 192.0, 0.0, 0.0, 0.0, 0.0, 0.0, 0.0, 0.0, 0.0, 0.0, 1.677707972445952E9, 0.0, 2023-03-01 13:59:32.445
62.0, 11965.067620881513, 15928.903630841212, 0.0, 0.0, 0.0, 0.0, 0.0, 0.0, -0.256, -0.802, 0.596, 192.0, 0.0, 0.0, 0.0, 0.0, 0.0, 0.0, 0.0, 0.0, 0.0, 1.677707972453249E9, 0.0, 2023-03-01 13:59:32.453
63.0, 11964.285309825578, 15930.088273297344, 0.0, 0.0, 0.0, 0.0, 0.0, 0.0, -0.256, -0.802, 0.596, 192.0, 0.0, 0.0, 0.0, 0.0, 0.0, 0.0, 0.0, 0.0, 0.0, 1.677707972453267E9, 0.0, 2023-03-01 13:59:32.453
64.0, 11970.499094784152, 15934.62567742177, 0.0, 0.0, 0.0, 0.0, 0.0, 0.0, -0.256, -0.802, 0.596, 192.0, 0.0, 0.0, 0.0, 0.0, 0.0, 0.0, 0.0, 0.0, 0.0, 1.677707972460414E9, 0.0, 2023-03-01 13:59:32.460
65.0, 11977.159914631835, 15939.274840268476, 0.0, 0.0, 0.0, 0.0, 0.0, 0.0, -0.256, -0.802, 0.596, 192.0, 0.0, 0.0, 0.0, 0.0, 0.0, 0.0, 0.0, 0.0, 0.0, 1.677707972460462E9, 0.0, 2023-03-01 13:59:32.460
66.0, 11975.572940775508, 15939.319543757385, 0.0, 0.0, 0.0, 0.0, 0.0, 0.0, -0.264, -0.786, 0.6, 192.0, 247.0, 192.0, 231.0, 112.0, 18.0, 192.0, 0.0, 0.0, 0.0, 1.677707972468502E9, 0.0, 2023-03-01 13:59:32.468
67.0, 11970.007356406137, 15932.904593098712, 0.0, 0.0, 0.0, 0.0, 0.0, 0.0, -0.264, -0.786, 0.6, 192.0, 0.0, 0.0, 0.0, 0.0, 0.0, 0.0, 0.0, 0.0, 0.0, 1.677707972474913E9, 0.0, 2023-03-01 13:59:32.474
68.0, 11978.769240232616, 15938.313715256896, 0.0, 0.0, 0.0, 0.0, 0.0, 0.0, -0.264, -0.786, 0.6, 192.0, 0.0, 0.0, 0.0, 0.0, 0.0, 0.0, 0.0, 0.0, 0.0, 1.677707972474927E9, 0.0, 2023-03-01 13:59:32.474
69.0, 11982.524333301108, 15939.543061201939, 0.0, 0.0, 0.0, 0.0, 0.0, 0.0, -0.264, -0.786, 0.6, 192.0, 0.0, 0.0, 0.0, 0.0, 0.0, 0.0, 0.0, 0.0, 0.0, 1.677707972482887E9, 0.0, 2023-03-01 13:59:32.482
70.0, 11982.904312956849, 15939.230136779564, 0.0, 0.0, 0.0, 0.0, 0.0, 0.0, -0.264, -0.786, 0.6, 192.0, 0.0, 0.0, 0.0, 0.0, 0.0, 0.0, 0.0, 0.0, 0.0, 1.677707972482896E9, 0.0, 2023-03-01 13:59:32.482
71.0, 11975.08120239749, 15934.022180321477, 0.0, 0.0, 0.0, 0.0, 0.0, 0.0, -0.264, -0.786, 0.6, 192.0, 0.0, 0.0, 0.0, 0.0, 0.0, 0.0, 0.0, 0.0, 0.0, 1.677707972491082E9, 0.0, 2023-03-01 13:59:32.491
72.0, 11975.37177507541, 15932.904593098712, 0.0, 0.0, 0.0, 0.0, 0.0, 0.0, -0.264, -0.786, 0.6, 192.0, 0.0, 0.0, 0.0, 0.0, 0.0, 0.0, 0.0, 0.0, 0.0, 1.677707972491098E9, 0.0, 2023-03-01 13:59:32.491
73.0, 11980.266807111122, 15934.424511721672, 0.0, 0.0, 0.0, 0.0, 0.0, 0.0, -0.264, -0.786, 0.6, 192.0, 0.0, 0.0, 0.0, 0.0, 0.0, 0.0, 0.0, 0.0, 0.0, 1.677707972499565E9, 0.0, 2023-03-01 13:59:32.499
74.0, 11977.539894287574, 15932.636372165249, 0.0, 0.0, 0.0, 0.0, 0.0, 0.0, -0.264, -0.786, 0.6, 192.0, 0.0, 0.0, 0.0, 0.0, 0.0, 0.0, 0.0, 0.0, 0.0, 1.67770797249958E9, 0.0, 2023-03-01 13:59:32.499
75.0, 11974.2765395971, 15933.86571811029, 0.0, 0.0, 0.0, 0.0, 0.0, 0.0, -0.264, -0.786, 0.6, 192.0, 0.0, 0.0, 0.0, 0.0, 0.0, 0.0, 0.0, 0.0, 0.0, 1.677707972505778E9, 0.0, 2023-03-01 13:59:32.505
76.0, 11976.914045442825, 15933.642200665738, 0.0, 0.0, 0.0, 0.0, 0.0, 0.0, -0.264, -0.788, 0.594, 192.0, 247.0, 192.0, 231.0, 96.0, 18.0, 144.0, 0.0, 0.0, 0.0, 1.677707972505793E9, 0.0, 2023-03-01 13:59:32.505
77.0, 11984.200714135255, 15938.067846067888, 0.0, 0.0, 0.0, 0.0, 0.0, 0.0, -0.264, -0.788, 0.594, 192.0, 0.0, 0.0, 0.0, 0.0, 0.0, 0.0, 0.0, 0.0, 0.0, 1.677707972513654E9, 0.0, 2023-03-01 13:59:32.513
78.0, 11983.977196690703, 15942.068808325388, 0.0, 0.0, 0.0, 0.0, 0.0, 0.0, -0.264, -0.788, 0.594, 192.0, 0.0, 0.0, 0.0, 0.0, 0.0, 0.0, 0.0, 0.0, 0.0, 1.677707972513667E9, 0.0, 2023-03-01 13:59:32.513
79.0, 11965.425248792799, 15928.389540718741, 0.0, 0.0, 0.0, 0.0, 0.0, 0.0, -0.264, -0.788, 0.594, 192.0, 0.0, 0.0, 0.0, 0.0, 0.0, 0.0, 0.0, 0.0, 0.0, 1.677707972521571E9, 0.0, 2023-03-01 13:59:32.521
80.0, 11958.2726905671, 15926.48964244004, 0.0, 0.0, 0.0, 0.0, 0.0, 0.0, -0.264, -0.788, 0.594, 192.0, 0.0, 0.0, 0.0, 0.0, 0.0, 0.0, 0.0, 0.0, 0.0, 1.677707972521583E9, 0.0, 2023-03-01 13:59:32.521
81.0, 11959.904367912337, 15923.71802612758, 0.0, 0.0, 0.0, 0.0, 0.0, 0.0, -0.264, -0.788, 0.594, 192.0, 0.0, 0.0, 0.0, 0.0, 0.0, 0.0, 0.0, 0.0, 0.0, 1.6777079725278E9, 0.0, 2023-03-01 13:59:32.527
82.0, 11959.479684767686, 15922.24281099353, 0.0, 0.0, 0.0, 0.0, 0.0, 0.0, -0.264, -0.788, 0.594, 192.0, 0.0, 0.0, 0.0, 0.0, 0.0, 0.0, 0.0, 0.0, 0.0, 1.677707972535198E9, 0.0, 2023-03-01 13:59:32.535
83.0, 11962.966556902715, 15925.10383428381, 0.0, 0.0, 0.0, 0.0, 0.0, 0.0, -0.264, -0.788, 0.594, 192.0, 0.0, 0.0, 0.0, 0.0, 0.0, 0.0, 0.0, 0.0, 0.0, 1.677707972535217E9, 0.0, 2023-03-01 13:59:32.535
84.0, 11959.390277789866, 15922.131052271254, 0.0, 0.0, 0.0, 0.0, 0.0, 0.0, -0.264, -0.788, 0.594, 192.0, 0.0, 0.0, 0.0, 0.0, 0.0, 0.0, 0.0, 0.0, 0.0, 1.677707972543354E9, 0.0, 2023-03-01 13:59:32.543
85.0, 11963.860626680926, 15924.969723817077, 0.0, 0.0, 0.0, 0.0, 0.0, 0.0, -0.264, -0.788, 0.594, 192.0, 0.0, 0.0, 0.0, 0.0, 0.0, 0.0, 0.0, 0.0, 0.0, 1.677707972543373E9, 0.0, 2023-03-01 13:59:32.543
86.0, 11968.018051149613, 15926.288476739941, 0.0, 0.0, 0.0, 0.0, 0.0, 0.0, -0.26, -0.792, 0.592, 192.0, 247.0, 224.0, 231.0, 64.0, 18.0, 128.0, 0.0, 0.0, 0.0, 1.677707972551277E9, 0.0, 2023-03-01 13:59:32.551
87.0, 11968.375679060899, 15925.349703472819, 0.0, 0.0, 0.0, 0.0, 0.0, 0.0, -0.26, -0.792, 0.592, 192.0, 0.0, 0.0, 0.0, 0.0, 0.0, 0.0, 0.0, 0.0, 0.0, 1.677707972551299E9, 0.0, 2023-03-01 13:59:32.551
88.0, 11965.93933891527, 15924.276819738963, 0.0, 0.0, 0.0, 0.0, 0.0, 0.0, -0.26, -0.792, 0.592, 192.0, 0.0, 0.0, 0.0, 0.0, 0.0, 0.0, 0.0, 0.0, 0.0, 1.677707972557911E9, 0.0, 2023-03-01 13:59:32.557
89.0, 11968.263920338622, 15926.377883717763, 0.0, 0.0, 0.0, 0.0, 0.0, 0.0, -0.26, -0.792, 0.592, 192.0, 0.0, 0.0, 0.0, 0.0, 0.0, 0.0, 0.0, 0.0, 0.0, 1.67770797255792E9, 0.0, 2023-03-01 13:59:32.557
90.0, 11970.119115128413, 15927.607229662804, 0.0, 0.0, 0.0, 0.0, 0.0, 0.0, -0.26, -0.792, 0.592, 192.0, 0.0, 0.0, 0.0, 0.0, 0.0, 0.0, 0.0, 0.0, 0.0, 1.677707972565888E9, 0.0, 2023-03-01 13:59:32.565
91.0, 11963.950033658748, 15919.225325492065, 0.0, 0.0, 0.0, 0.0, 0.0, 0.0, -0.26, -0.792, 0.592, 192.0, 0.0, 0.0, 0.0, 0.0, 0.0, 0.0, 0.0, 0.0, 0.0, 1.6777079725659E9, 0.0, 2023-03-01 13:59:32.565
92.0, 11958.049173122547, 15917.615999891283, 0.0, 0.0, 0.0, 0.0, 0.0, 0.0, -0.26, -0.792, 0.592, 192.0, 0.0, 0.0, 0.0, 0.0, 0.0, 0.0, 0.0, 0.0, 0.0, 1.677707972573889E9, 0.0, 2023-03-01 13:59:32.573
93.0, 11954.361135287421, 15913.726796356059, 0.0, 0.0, 0.0, 0.0, 0.0, 0.0, -0.26, -0.792, 0.592, 192.0, 0.0, 0.0, 0.0, 0.0, 0.0, 0.0, 0.0, 0.0, 0.0, 1.677707972573908E9, 0.0, 2023-03-01 13:59:32.573
94.0, 11963.167722602811, 15919.337084214341, 0.0, 0.0, 0.0, 0.0, 0.0, 0.0, -0.26, -0.792, 0.592, 192.0, 0.0, 0.0, 0.0, 0.0, 0.0, 0.0, 0.0, 0.0, 0.0, 1.677707972581047E9, 0.0, 2023-03-01 13:59:32.581
95.0, 11955.74694344365, 15915.738453357037, 0.0, 0.0, 0.0, 0.0, 0.0, 0.0, -0.26, -0.792, 0.592, 192.0, 0.0, 0.0, 0.0, 0.0, 0.0, 0.0, 0.0, 0.0, 0.0, 1.677707972581062E9, 0.0, 2023-03-01 13:59:32.581
96.0, 11954.472894009697, 15915.649046379216, 0.0, 0.0, 0.0, 0.0, 0.0, 0.0, -0.26, -0.796, 0.592, 192.0, 247.0, 224.0, 231.0, 32.0, 18.0, 128.0, 0.0, 0.0, 0.0, 1.677707972587528E9, 0.0, 2023-03-01 13:59:32.587
97.0, 11958.384449289377, 15918.174793502665, 0.0, 0.0, 0.0, 0.0, 0.0, 0.0, -0.26, -0.796, 0.592, 192.0, 0.0, 0.0, 0.0, 0.0, 0.0, 0.0, 0.0, 0.0, 0.0, 1.677707972595562E9, 0.0, 2023-03-01 13:59:32.595
98.0, 11960.574920245996, 15919.38178770325, 0.0, 0.0, 0.0, 0.0, 0.0, 0.0, -0.26, -0.796, 0.592, 192.0, 0.0, 0.0, 0.0, 0.0, 0.0, 0.0, 0.0, 0.0, 0.0, 1.677707972595579E9, 0.0, 2023-03-01 13:59:32.595
99.0, 11958.697373711751, 15918.621828391771, 0.0, 0.0, 0.0, 0.0, 0.0, 0.0, -0.26, -0.796, 0.592, 192.0, 0.0, 0.0, 0.0, 0.0, 0.0, 0.0, 0.0, 0.0, 0.0, 1.677707972603634E9, 0.0, 2023-03-01 13:59:32.603
100.0, 11954.405838776333, 15917.973627802567, 0.0, 0.0, 0.0, 0.0, 0.0, 0.0, -0.26, -0.796, 0.592, 192.0, 0.0, 0.0, 0.0, 0.0, 0.0, 0.0, 0.0, 0.0, 0.0, 1.677707972603648E9, 0.0, 2023-03-01 13:59:32.603
101.0, 11955.210501576723, 15919.58295340335, 0.0, 0.0, 0.0, 0.0, 0.0, 0.0, -0.26, -0.796, 0.592, 192.0, 0.0, 0.0, 0.0, 0.0, 0.0, 0.0, 0.0, 0.0, 0.0, 1.677707972610748E9, 0.0, 2023-03-01 13:59:32.610
102.0, 11959.166760345312, 15919.158270258698, 0.0, 0.0, 0.0, 0.0, 0.0, 0.0, -0.26, -0.796, 0.592, 192.0, 0.0, 0.0, 0.0, 0.0, 0.0, 0.0, 0.0, 0.0, 0.0, 1.677707972610762E9, 0.0, 2023-03-01 13:59:32.610
103.0, 11961.536045257575, 15923.405101705206, 0.0, 0.0, 0.0, 0.0, 0.0, 0.0, -0.26, -0.796, 0.592, 192.0, 0.0, 0.0, 0.0, 0.0, 0.0, 0.0, 0.0, 0.0, 0.0, 1.677707972618194E9, 0.0, 2023-03-01 13:59:32.618
104.0, 11956.193978332756, 15921.974590060066, 0.0, 0.0, 0.0, 0.0, 0.0, 0.0, -0.26, -0.796, 0.592, 192.0, 0.0, 0.0, 0.0, 0.0, 0.0, 0.0, 0.0, 0.0, 0.0, 1.67770797261821E9, 0.0, 2023-03-01 13:59:32.618
105.0, 11952.237719564167, 15917.727758613559, 0.0, 0.0, 0.0, 0.0, 0.0, 0.0, -0.26, -0.796, 0.592, 192.0, 0.0, 0.0, 0.0, 0.0, 0.0, 0.0, 0.0, 0.0, 0.0, 1.677707972626201E9, 0.0, 2023-03-01 13:59:32.626
106.0, 11955.188149832267, 15917.079558024356, 0.0, 0.0, 0.0, 0.0, 0.0, 0.0, -0.254, -0.796, 0.59, 192.0, 248.0, 16.0, 231.0, 32.0, 18.0, 112.0, 0.0, 0.0, 0.0, 1.677707972626223E9, 0.0, 2023-03-01 13:59:32.626
107.0, 11958.831484178483, 15920.745244115025, 0.0, 0.0, 0.0, 0.0, 0.0, 0.0, -0.254, -0.796, 0.59, 192.0, 0.0, 0.0, 0.0, 0.0, 0.0, 0.0, 0.0, 0.0, 0.0, 1.677707972634207E9, 0.0, 2023-03-01 13:59:32.634
108.0, 11953.847045164948, 15917.884220824746, 0.0, 0.0, 0.0, 0.0, 0.0, 0.0, -0.254, -0.796, 0.59, 192.0, 0.0, 0.0, 0.0, 0.0, 0.0, 0.0, 0.0, 0.0, 0.0, 1.677707972634226E9, 0.0, 2023-03-01 13:59:32.634
109.0, 11957.423324277797, 15917.10190976881, 0.0, 0.0, 0.0, 0.0, 0.0, 0.0, -0.254, -0.796, 0.59, 192.0, 0.0, 0.0, 0.0, 0.0, 0.0, 0.0, 0.0, 0.0, 0.0, 1.677707972640847E9, 0.0, 2023-03-01 13:59:32.640
110.0, 11957.758600444628, 15916.274895223964, 0.0, 0.0, 0.0, 0.0, 0.0, 0.0, -0.254, -0.796, 0.59, 192.0, 0.0, 0.0, 0.0, 0.0, 0.0, 0.0, 0.0, 0.0, 0.0, 1.677707972640859E9, 0.0, 2023-03-01 13:59:32.640
111.0, 11956.931585899782, 15915.29141846793, 0.0, 0.0, 0.0, 0.0, 0.0, 0.0, -0.254, -0.796, 0.59, 192.0, 0.0, 0.0, 0.0, 0.0, 0.0, 0.0, 0.0, 0.0, 0.0, 1.677707972647797E9, 0.0, 2023-03-01 13:59:32.647
112.0, 11953.243548064656, 15916.252543479508, 0.0, 0.0, 0.0, 0.0, 0.0, 0.0, -0.254, -0.796, 0.59, 192.0, 0.0, 0.0, 0.0, 0.0, 0.0, 0.0, 0.0, 0.0, 0.0, 1.677707972655855E9, 0.0, 2023-03-01 13:59:32.655
113.0, 11951.075428852491, 15917.10190976881, 0.0, 0.0, 0.0, 0.0, 0.0, 0.0, -0.254, -0.796, 0.59, 192.0, 0.0, 0.0, 0.0, 0.0, 0.0, 0.0, 0.0, 0.0, 0.0, 1.677707972655865E9, 0.0, 2023-03-01 13:59:32.655
114.0, 11955.769295188105, 15917.258371979997, 0.0, 0.0, 0.0, 0.0, 0.0, 0.0, -0.254, -0.796, 0.59, 192.0, 0.0, 0.0, 0.0, 0.0, 0.0, 0.0, 0.0, 0.0, 0.0, 1.677707972663873E9, 0.0, 2023-03-01 13:59:32.663
115.0, 11958.898539411848, 15919.67236038117, 0.0, 0.0, 0.0, 0.0, 0.0, 0.0, -0.254, -0.796, 0.59, 192.0, 0.0, 0.0, 0.0, 0.0, 0.0, 0.0, 0.0, 0.0, 0.0, 1.677707972663891E9, 0.0, 2023-03-01 13:59:32.663
116.0, 11957.333917299977, 15919.426491192162, 0.0, 0.0, 0.0, 0.0, 0.0, 0.0, -0.26, -0.786, 0.598, 192.0, 247.0, 224.0, 231.0, 112.0, 18.0, 176.0, 0.0, 0.0, 0.0, 1.677707972670545E9, 0.0, 2023-03-01 13:59:32.670
117.0, 11949.354344529433, 15912.229229477553, 0.0, 0.0, 0.0, 0.0, 0.0, 0.0, -0.26, -0.786, 0.598, 192.0, 0.0, 0.0, 0.0, 0.0, 0.0, 0.0, 0.0, 0.0, 0.0, 1.677707972670564E9, 0.0, 2023-03-01 13:59:32.670
118.0, 11948.303812540033, 15909.725834098559, 0.0, 0.0, 0.0, 0.0, 0.0, 0.0, -0.26, -0.786, 0.598, 192.0, 0.0, 0.0, 0.0, 0.0, 0.0, 0.0, 0.0, 0.0, 0.0, 1.677707972678558E9, 0.0, 2023-03-01 13:59:32.678
119.0, 11956.104571354936, 15917.750110358014, 0.0, 0.0, 0.0, 0.0, 0.0, 0.0, -0.26, -0.786, 0.598, 192.0, 0.0, 0.0, 0.0, 0.0, 0.0, 0.0, 0.0, 0.0, 0.0, 1.677707972678576E9, 0.0, 2023-03-01 13:59:32.678
120.0, 11951.544815486051, 15913.078595766854, 0.0, 0.0, 0.0, 0.0, 0.0, 0.0, -0.26, -0.786, 0.598, 192.0, 0.0, 0.0, 0.0, 0.0, 0.0, 0.0, 0.0, 0.0, 0.0, 1.67770797268659E9, 0.0, 2023-03-01 13:59:32.686
121.0, 11949.399048018342, 15912.206877733099, 0.0, 0.0, 0.0, 0.0, 0.0, 0.0, -0.26, -0.786, 0.598, 192.0, 0.0, 0.0, 0.0, 0.0, 0.0, 0.0, 0.0, 0.0, 0.0, 1.677707972686603E9, 0.0, 2023-03-01 13:59:32.686
122.0, 11951.008373619125, 15912.72096785557, 0.0, 0.0, 0.0, 0.0, 0.0, 0.0, -0.26, -0.786, 0.598, 192.0, 0.0, 0.0, 0.0, 0.0, 0.0, 0.0, 0.0, 0.0, 0.0, 1.677707972693133E9, 0.0, 2023-03-01 13:59:32.693
123.0, 11956.775123688594, 15917.705406869103, 0.0, 0.0, 0.0, 0.0, 0.0, 0.0, -0.26, -0.786, 0.598, 192.0, 0.0, 0.0, 0.0, 0.0, 0.0, 0.0, 0.0, 0.0, 0.0, 1.677707972693148E9, 0.0, 2023-03-01 13:59:32.693
124.0, 11957.423324277797, 15919.20297374761, 0.0, 0.0, 0.0, 0.0, 0.0, 0.0, -0.26, -0.786, 0.598, 192.0, 0.0, 0.0, 0.0, 0.0, 0.0, 0.0, 0.0, 0.0, 0.0, 1.677707972701152E9, 0.0, 2023-03-01 13:59:32.701
125.0, 11952.304774797532, 15917.973627802567, 0.0, 0.0, 0.0, 0.0, 0.0, 0.0, -0.26, -0.786, 0.598, 192.0, 0.0, 0.0, 0.0, 0.0, 0.0, 0.0, 0.0, 0.0, 0.0, 1.677707972701161E9, 0.0, 2023-03-01 13:59:32.701
126.0, 11954.472894009697, 15918.554773158405, 0.0, 0.0, 0.0, 0.0, 0.0, 0.0, -0.26, -0.786, 0.598, 192.0, 0.0, 0.0, 0.0, 0.0, 0.0, 0.0, 0.0, 0.0, 0.0, 1.677707972708249E9, 0.0, 2023-03-01 13:59:32.708
127.0, 11958.451504522742, 15918.66653188068, 0.0, 0.0, 0.0, 0.0, 0.0, 0.0, -0.266, -0.79, 0.602, 192.0, 247.0, 176.0, 231.0, 80.0, 18.0, 208.0, 0.0, 0.0, 0.0, 1.677707972708268E9, 0.0, 2023-03-01 13:59:32.708
128.0, 11965.380545303888, 15924.813261605892, 0.0, 0.0, 0.0, 0.0, 0.0, 0.0, -0.266, -0.79, 0.602, 192.0, 0.0, 0.0, 0.0, 0.0, 0.0, 0.0, 0.0, 0.0, 0.0, 1.67770797271642E9, 0.0, 2023-03-01 13:59:32.716
129.0, 11957.646841722351, 15920.09704352582, 0.0, 0.0, 0.0, 0.0, 0.0, 0.0, -0.266, -0.79, 0.602, 192.0, 0.0, 0.0, 0.0, 0.0, 0.0, 0.0, 0.0, 0.0, 0.0, 1.67770797272279E9, 0.0, 2023-03-01 13:59:32.722
130.0, 11954.852873665437, 15914.933790556646, 0.0, 0.0, 0.0, 0.0, 0.0, 0.0, -0.266, -0.79, 0.602, 192.0, 0.0, 0.0, 0.0, 0.0, 0.0, 0.0, 0.0, 0.0, 0.0, 1.677707972722808E9, 0.0, 2023-03-01 13:59:32.722
131.0, 11957.624489977896, 15913.682092867148, 0.0, 0.0, 0.0, 0.0, 0.0, 0.0, -0.266, -0.79, 0.602, 192.0, 0.0, 0.0, 0.0, 0.0, 0.0, 0.0, 0.0, 0.0, 0.0, 1.677707972730792E9, 0.0, 2023-03-01 13:59:32.730
132.0, 11955.478722510186, 15913.458575422595, 0.0, 0.0, 0.0, 0.0, 0.0, 0.0, -0.266, -0.79, 0.602, 192.0, 0.0, 0.0, 0.0, 0.0, 0.0, 0.0, 0.0, 0.0, 0.0, 1.677707972730804E9, 0.0, 2023-03-01 13:59:32.730
133.0, 11955.299908554543, 15916.274895223964, 0.0, 0.0, 0.0, 0.0, 0.0, 0.0, -0.266, -0.79, 0.602, 192.0, 0.0, 0.0, 0.0, 0.0, 0.0, 0.0, 0.0, 0.0, 0.0, 1.677707972738799E9, 0.0, 2023-03-01 13:59:32.738
134.0, 11950.829559663482, 15913.86090682279, 0.0, 0.0, 0.0, 0.0, 0.0, 0.0, -0.266, -0.79, 0.602, 192.0, 0.0, 0.0, 0.0, 0.0, 0.0, 0.0, 0.0, 0.0, 0.0, 1.677707972738811E9, 0.0, 2023-03-01 13:59:32.738
135.0, 11957.244510322156, 15918.219496991576, 0.0, 0.0, 0.0, 0.0, 0.0, 0.0, -0.266, -0.79, 0.602, 192.0, 0.0, 0.0, 0.0, 0.0, 0.0, 0.0, 0.0, 0.0, 0.0, 1.677707972745977E9, 0.0, 2023-03-01 13:59:32.745
136.0, 11959.412629534321, 15918.755938858503, 0.0, 0.0, 0.0, 0.0, 0.0, 0.0, -0.266, -0.79, 0.602, 192.0, 0.0, 0.0, 0.0, 0.0, 0.0, 0.0, 0.0, 0.0, 0.0, 1.677707972745986E9, 0.0, 2023-03-01 13:59:32.745
137.0, 11948.214405562212, 15907.825935819857, 0.0, 0.0, 0.0, 0.0, 0.0, 0.0, -0.262, -0.792, 0.598, 192.0, 247.0, 208.0, 231.0, 64.0, 18.0, 176.0, 0.0, 0.0, 0.0, 1.677707972753412E9, 0.0, 2023-03-01 13:59:32.753
138.0, 11946.895652639349, 15906.708348597092, 0.0, 0.0, 0.0, 0.0, 0.0, 0.0, -0.262, -0.792, 0.598, 192.0, 0.0, 0.0, 0.0, 0.0, 0.0, 0.0, 0.0, 0.0, 0.0, 1.677707972753432E9, 0.0, 2023-03-01 13:59:32.753
139.0, 11948.214405562212, 15906.14955498571, 0.0, 0.0, 0.0, 0.0, 0.0, 0.0, -0.262, -0.792, 0.598, 192.0, 0.0, 0.0, 0.0, 0.0, 0.0, 0.0, 0.0, 0.0, 0.0, 1.677707972761277E9, 0.0, 2023-03-01 13:59:32.761
140.0, 11943.095856081945, 15903.981435773545, 0.0, 0.0, 0.0, 0.0, 0.0, 0.0, -0.262, -0.792, 0.598, 192.0, 0.0, 0.0, 0.0, 0.0, 0.0, 0.0, 0.0, 0.0, 0.0, 1.677707972761291E9, 0.0, 2023-03-01 13:59:32.761
141.0, 11941.397123503342, 15904.093194495821, 0.0, 0.0, 0.0, 0.0, 0.0, 0.0, -0.262, -0.792, 0.598, 192.0, 0.0, 0.0, 0.0, 0.0, 0.0, 0.0, 0.0, 0.0, 0.0, 1.677707972769951E9, 0.0, 2023-03-01 13:59:32.769
142.0, 11935.853890878427, 15902.550924128405, 0.0, 0.0, 0.0, 0.0, 0.0, 0.0, -0.262, -0.792, 0.598, 192.0, 0.0, 0.0, 0.0, 0.0, 0.0, 0.0, 0.0, 0.0, 0.0, 1.677707972769969E9, 0.0, 2023-03-01 13:59:32.769
143.0, 11940.056018836025, 15907.356549186296, 0.0, 0.0, 0.0, 0.0, 0.0, 0.0, -0.262, -0.792, 0.598, 192.0, 0.0, 0.0, 0.0, 0.0, 0.0, 0.0, 0.0, 0.0, 0.0, 1.677707972776202E9, 0.0, 2023-03-01 13:59:32.776
144.0, 11943.788760160061, 15905.300188696408, 0.0, 0.0, 0.0, 0.0, 0.0, 0.0, -0.262, -0.792, 0.598, 192.0, 0.0, 0.0, 0.0, 0.0, 0.0, 0.0, 0.0, 0.0, 0.0, 1.677707972783032E9, 0.0, 2023-03-01 13:59:32.783
145.0, 11948.259109051121, 15909.658778865192, 0.0, 0.0, 0.0, 0.0, 0.0, 0.0, -0.262, -0.792, 0.598, 192.0, 0.0, 0.0, 0.0, 0.0, 0.0, 0.0, 0.0, 0.0, 0.0, 1.67770797278305E9, 0.0, 2023-03-01 13:59:32.783
146.0, 11947.566204973007, 15912.139822499732, 0.0, 0.0, 0.0, 0.0, 0.0, 0.0, -0.262, -0.792, 0.598, 192.0, 0.0, 0.0, 0.0, 0.0, 0.0, 0.0, 0.0, 0.0, 0.0, 1.677707972790975E9, 0.0, 2023-03-01 13:59:32.790
147.0, 11949.689620696261, 15913.190354489132, 0.0, 0.0, 0.0, 0.0, 0.0, 0.0, -0.26, -0.798, 0.594, 192.0, 247.0, 224.0, 231.0, 16.0, 18.0, 144.0, 0.0, 0.0, 0.0, 1.677707972790984E9, 0.0, 2023-03-01 13:59:32.790
148.0, 11956.864530666415, 15915.313770212386, 0.0, 0.0, 0.0, 0.0, 0.0, 0.0, -0.26, -0.798, 0.594, 192.0, 0.0, 0.0, 0.0, 0.0, 0.0, 0.0, 0.0, 0.0, 0.0, 1.677707972799106E9, 0.0, 2023-03-01 13:59:32.799
149.0, 11956.998641133147, 15916.81133709089, 0.0, 0.0, 0.0, 0.0, 0.0, 0.0, -0.26, -0.798, 0.594, 192.0, 0.0, 0.0, 0.0, 0.0, 0.0, 0.0, 0.0, 0.0, 0.0, 1.67770797279913E9, 0.0, 2023-03-01 13:59:32.799
150.0, 11951.433056763775, 15915.358473701297, 0.0, 0.0, 0.0, 0.0, 0.0, 0.0, -0.26, -0.798, 0.594, 192.0, 0.0, 0.0, 0.0, 0.0, 0.0, 0.0, 0.0, 0.0, 0.0, 1.677707972805575E9, 0.0, 2023-03-01 13:59:32.805
151.0, 11952.84121666446, 15918.688883625136, 0.0, 0.0, 0.0, 0.0, 0.0, 0.0, -0.26, -0.798, 0.594, 192.0, 0.0, 0.0, 0.0, 0.0, 0.0, 0.0, 0.0, 0.0, 0.0, 1.677707972805591E9, 0.0, 2023-03-01 13:59:32.805
152.0, 11954.294080054055, 15919.20297374761, 0.0, 0.0, 0.0, 0.0, 0.0, 0.0, -0.26, -0.798, 0.594, 192.0, 0.0, 0.0, 0.0, 0.0, 0.0, 0.0, 0.0, 0.0, 0.0, 1.677707972813637E9, 0.0, 2023-03-01 13:59:32.813
153.0, 11948.728495684683, 15914.665569623181, 0.0, 0.0, 0.0, 0.0, 0.0, 0.0, -0.26, -0.798, 0.594, 192.0, 0.0, 0.0, 0.0, 0.0, 0.0, 0.0, 0.0, 0.0, 0.0, 1.677707972813656E9, 0.0, 2023-03-01 13:59:32.813
154.0, 11942.872338637393, 15909.032930020445, 0.0, 0.0, 0.0, 0.0, 0.0, 0.0, -0.26, -0.798, 0.594, 192.0, 0.0, 0.0, 0.0, 0.0, 0.0, 0.0, 0.0, 0.0, 0.0, 1.677707972821646E9, 0.0, 2023-03-01 13:59:32.821
155.0, 11941.933565370271, 15906.618941619272, 0.0, 0.0, 0.0, 0.0, 0.0, 0.0, -0.26, -0.798, 0.594, 192.0, 0.0, 0.0, 0.0, 0.0, 0.0, 0.0, 0.0, 0.0, 0.0, 1.677707972821665E9, 0.0, 2023-03-01 13:59:32.821
156.0, 11948.683792195772, 15910.709310854592, 0.0, 0.0, 0.0, 0.0, 0.0, 0.0, -0.26, -0.798, 0.594, 192.0, 0.0, 0.0, 0.0, 0.0, 0.0, 0.0, 0.0, 0.0, 0.0, 1.677707972828676E9, 0.0, 2023-03-01 13:59:32.828
157.0, 11952.684754453274, 15911.938656799633, 0.0, 0.0, 0.0, 0.0, 0.0, 0.0, -0.26, -0.794, 0.592, 192.0, 247.0, 224.0, 231.0, 48.0, 18.0, 128.0, 0.0, 0.0, 0.0, 1.677707972828689E9, 0.0, 2023-03-01 13:59:32.828
158.0, 11951.902443397337, 15914.330293456353, 0.0, 0.0, 0.0, 0.0, 0.0, 0.0, -0.26, -0.794, 0.592, 192.0, 0.0, 0.0, 0.0, 0.0, 0.0, 0.0, 0.0, 0.0, 0.0, 1.677707972835325E9, 0.0, 2023-03-01 13:59:32.835
159.0, 11951.65657420833, 15913.480927167051, 0.0, 0.0, 0.0, 0.0, 0.0, 0.0, -0.26, -0.794, 0.592, 192.0, 0.0, 0.0, 0.0, 0.0, 0.0, 0.0, 0.0, 0.0, 0.0, 1.677707972843303E9, 0.0, 2023-03-01 13:59:32.843
160.0, 11955.791646932561, 15916.923095813168, 0.0, 0.0, 0.0, 0.0, 0.0, 0.0, -0.26, -0.794, 0.592, 192.0, 0.0, 0.0, 0.0, 0.0, 0.0, 0.0, 0.0, 0.0, 0.0, 1.677707972843319E9, 0.0, 2023-03-01 13:59:32.843
161.0, 11953.154141086834, 15914.57616264536, 0.0, 0.0, 0.0, 0.0, 0.0, 0.0, -0.26, -0.794, 0.592, 192.0, 0.0, 0.0, 0.0, 0.0, 0.0, 0.0, 0.0, 0.0, 0.0, 1.677707972851316E9, 0.0, 2023-03-01 13:59:32.851
162.0, 11945.956879372226, 15910.642255621226, 0.0, 0.0, 0.0, 0.0, 0.0, 0.0, -0.26, -0.794, 0.592, 192.0, 0.0, 0.0, 0.0, 0.0, 0.0, 0.0, 0.0, 0.0, 0.0, 1.677707972851333E9, 0.0, 2023-03-01 13:59:32.851
163.0, 11944.861643893915, 15911.469270166073, 0.0, 0.0, 0.0, 0.0, 0.0, 0.0, -0.26, -0.794, 0.592, 192.0, 0.0, 0.0, 0.0, 0.0, 0.0, 0.0, 0.0, 0.0, 0.0, 1.677707972857903E9, 0.0, 2023-03-01 13:59:32.857
164.0, 11949.331992784977, 15913.637389378238, 0.0, 0.0, 0.0, 0.0, 0.0, 0.0, -0.26, -0.794, 0.592, 192.0, 0.0, 0.0, 0.0, 0.0, 0.0, 0.0, 0.0, 0.0, 0.0, 1.677707972857918E9, 0.0, 2023-03-01 13:59:32.857
165.0, 11955.03168762108, 15916.878392324257, 0.0, 0.0, 0.0, 0.0, 0.0, 0.0, -0.26, -0.794, 0.592, 192.0, 0.0, 0.0, 0.0, 0.0, 0.0, 0.0, 0.0, 0.0, 0.0, 1.677707972865874E9, 0.0, 2023-03-01 13:59:32.865
166.0, 11950.65074570784, 15915.716101612581, 0.0, 0.0, 0.0, 0.0, 0.0, 0.0, -0.26, -0.794, 0.592, 192.0, 0.0, 0.0, 0.0, 0.0, 0.0, 0.0, 0.0, 0.0, 0.0, 1.677707972865903E9, 0.0, 2023-03-01 13:59:32.865
167.0, 11944.861643893915, 15911.491621910529, 0.0, 0.0, 0.0, 0.0, 0.0, 0.0, -0.256, -0.794, 0.59, 192.0, 248.0, 0.0, 231.0, 48.0, 18.0, 112.0, 0.0, 0.0, 0.0, 1.677707972873948E9, 0.0, 2023-03-01 13:59:32.873
168.0, 11948.929661384782, 15915.023197534467, 0.0, 0.0, 0.0, 0.0, 0.0, 0.0, -0.256, -0.794, 0.59, 192.0, 0.0, 0.0, 0.0, 0.0, 0.0, 0.0, 0.0, 0.0, 0.0, 1.677707972873962E9, 0.0, 2023-03-01 13:59:32.873
169.0, 11950.091952096458, 15915.872563823768, 0.0, 0.0, 0.0, 0.0, 0.0, 0.0, -0.256, -0.794, 0.59, 192.0, 0.0, 0.0, 0.0, 0.0, 0.0, 0.0, 0.0, 0.0, 0.0, 1.677707972880902E9, 0.0, 2023-03-01 13:59:32.880
170.0, 11949.801379418539, 15915.023197534467, 0.0, 0.0, 0.0, 0.0, 0.0, 0.0, -0.256, -0.794, 0.59, 192.0, 0.0, 0.0, 0.0, 0.0, 0.0, 0.0, 0.0, 0.0, 0.0, 1.677707972880912E9, 0.0, 2023-03-01 13:59:32.880
171.0, 11944.861643893915, 15911.402214932707, 0.0, 0.0, 0.0, 0.0, 0.0, 0.0, -0.256, -0.794, 0.59, 192.0, 0.0, 0.0, 0.0, 0.0, 0.0, 0.0, 0.0, 0.0, 0.0, 1.677707972888442E9, 0.0, 2023-03-01 13:59:32.888
172.0, 11944.995754360647, 15906.171906730166, 0.0, 0.0, 0.0, 0.0, 0.0, 0.0, -0.256, -0.794, 0.59, 192.0, 0.0, 0.0, 0.0, 0.0, 0.0, 0.0, 0.0, 0.0, 0.0, 1.677707972888458E9, 0.0, 2023-03-01 13:59:32.888
173.0, 11951.164835830312, 15909.926999798656, 0.0, 0.0, 0.0, 0.0, 0.0, 0.0, -0.256, -0.794, 0.59, 192.0, 0.0, 0.0, 0.0, 0.0, 0.0, 0.0, 0.0, 0.0, 0.0, 1.677707972895484E9, 0.0, 2023-03-01 13:59:32.895
174.0, 11950.874263152393, 15910.284627709942, 0.0, 0.0, 0.0, 0.0, 0.0, 0.0, -0.256, -0.794, 0.59, 192.0, 0.0, 0.0, 0.0, 0.0, 0.0, 0.0, 0.0, 0.0, 0.0, 1.677707972903482E9, 0.0, 2023-03-01 13:59:32.903
175.0, 11948.236757306668, 15910.508145154494, 0.0, 0.0, 0.0, 0.0, 0.0, 0.0, -0.256, -0.794, 0.59, 192.0, 0.0, 0.0, 0.0, 0.0, 0.0, 0.0, 0.0, 0.0, 0.0, 1.677707972903497E9, 0.0, 2023-03-01 13:59:32.903
176.0, 11950.091952096458, 15915.20201149011, 0.0, 0.0, 0.0, 0.0, 0.0, 0.0, -0.256, -0.794, 0.59, 192.0, 0.0, 0.0, 0.0, 0.0, 0.0, 0.0, 0.0, 0.0, 0.0, 1.677707972910772E9, 0.0, 2023-03-01 13:59:32.910
177.0, 11954.495245754153, 15919.068863280878, 0.0, 0.0, 0.0, 0.0, 0.0, 0.0, -0.258, -0.796, 0.594, 192.0, 247.0, 240.0, 231.0, 32.0, 18.0, 144.0, 0.0, 0.0, 0.0, 1.677707972910786E9, 0.0, 2023-03-01 13:59:32.910
178.0, 11954.919928898804, 15920.43231969265, 0.0, 0.0, 0.0, 0.0, 0.0, 0.0, -0.258, -0.796, 0.594, 192.0, 0.0, 0.0, 0.0, 0.0, 0.0, 0.0, 0.0, 0.0, 0.0, 1.677707972918204E9, 0.0, 2023-03-01 13:59:32.918
179.0, 11952.528292242087, 15920.052340036911, 0.0, 0.0, 0.0, 0.0, 0.0, 0.0, -0.258, -0.796, 0.594, 192.0, 0.0, 0.0, 0.0, 0.0, 0.0, 0.0, 0.0, 0.0, 0.0, 1.677707972918215E9, 0.0, 2023-03-01 13:59:32.918
180.0, 11955.434019021275, 15922.466328438084, 0.0, 0.0, 0.0, 0.0, 0.0, 0.0, -0.258, -0.796, 0.594, 192.0, 0.0, 0.0, 0.0, 0.0, 0.0, 0.0, 0.0, 0.0, 0.0, 1.67770797292616E9, 0.0, 2023-03-01 13:59:32.926
181.0, 11963.190074347267, 15926.19906976212, 0.0, 0.0, 0.0, 0.0, 0.0, 0.0, -0.258, -0.796, 0.594, 192.0, 0.0, 0.0, 0.0, 0.0, 0.0, 0.0, 0.0, 0.0, 0.0, 1.677707972926171E9, 0.0, 2023-03-01 13:59:32.926
182.0, 11964.195902847756, 15925.908497084201, 0.0, 0.0, 0.0, 0.0, 0.0, 0.0, -0.258, -0.796, 0.594, 192.0, 0.0, 0.0, 0.0, 0.0, 0.0, 0.0, 0.0, 0.0, 0.0, 1.677707972934048E9, 0.0, 2023-03-01 13:59:32.934
183.0, 11960.440809779264, 15924.746206372525, 0.0, 0.0, 0.0, 0.0, 0.0, 0.0, -0.258, -0.796, 0.594, 192.0, 0.0, 0.0, 0.0, 0.0, 0.0, 0.0, 0.0, 0.0, 0.0, 1.677707972934065E9, 0.0, 2023-03-01 13:59:32.934
184.0, 11959.65849872333, 15923.874488338768, 0.0, 0.0, 0.0, 0.0, 0.0, 0.0, -0.258, -0.796, 0.594, 192.0, 0.0, 0.0, 0.0, 0.0, 0.0, 0.0, 0.0, 0.0, 0.0, 1.67770797294072E9, 0.0, 2023-03-01 13:59:32.940
185.0, 11964.955862159237, 15927.361360473797, 0.0, 0.0, 0.0, 0.0, 0.0, 0.0, -0.258, -0.796, 0.594, 192.0, 0.0, 0.0, 0.0, 0.0, 0.0, 0.0, 0.0, 0.0, 0.0, 1.677707972940733E9, 0.0, 2023-03-01 13:59:32.940
186.0, 11969.739135472671, 15929.730645386058, 0.0, 0.0, 0.0, 0.0, 0.0, 0.0, -0.258, -0.796, 0.594, 192.0, 0.0, 0.0, 0.0, 0.0, 0.0, 0.0, 0.0, 0.0, 0.0, 1.677707972948823E9, 0.0, 2023-03-01 13:59:32.948
187.0, 11965.358193559432, 15929.015389563488, 0.0, 0.0, 0.0, 0.0, 0.0, 0.0, -0.26, -0.794, 0.598, 192.0, 247.0, 224.0, 231.0, 48.0, 18.0, 176.0, 0.0, 0.0, 0.0, 1.677707972948838E9, 0.0, 2023-03-01 13:59:32.948
188.0, 11964.821751692505, 15928.836575607846, 0.0, 0.0, 0.0, 0.0, 0.0, 0.0, -0.26, -0.794, 0.598, 192.0, 0.0, 0.0, 0.0, 0.0, 0.0, 0.0, 0.0, 0.0, 0.0, 1.677707972955667E9, 0.0, 2023-03-01 13:59:32.955
189.0, 11964.397068547854, 15924.701502883614, 0.0, 0.0, 0.0, 0.0, 0.0, 0.0, -0.26, -0.794, 0.598, 192.0, 0.0, 0.0, 0.0, 0.0, 0.0, 0.0, 0.0, 0.0, 0.0, 1.677707972955682E9, 0.0, 2023-03-01 13:59:32.955
190.0, 11970.610853506429, 15929.596534919327, 0.0, 0.0, 0.0, 0.0, 0.0, 0.0, -0.26, -0.794, 0.598, 192.0, 0.0, 0.0, 0.0, 0.0, 0.0, 0.0, 0.0, 0.0, 0.0, 1.677707972963855E9, 0.0, 2023-03-01 13:59:32.963
191.0, 11970.610853506429, 15929.082444796855, 0.0, 0.0, 0.0, 0.0, 0.0, 0.0, -0.26, -0.794, 0.598, 192.0, 0.0, 0.0, 0.0, 0.0, 0.0, 0.0, 0.0, 0.0, 0.0, 1.677707972970382E9, 0.0, 2023-03-01 13:59:32.970
192.0, 11966.453429037741, 15927.227250007065, 0.0, 0.0, 0.0, 0.0, 0.0, 0.0, -0.26, -0.794, 0.598, 192.0, 0.0, 0.0, 0.0, 0.0, 0.0, 0.0, 0.0, 0.0, 0.0, 1.677707972970393E9, 0.0, 2023-03-01 13:59:32.970
193.0, 11969.113286627924, 15928.143671529731, 0.0, 0.0, 0.0, 0.0, 0.0, 0.0, -0.26, -0.794, 0.598, 192.0, 0.0, 0.0, 0.0, 0.0, 0.0, 0.0, 0.0, 0.0, 0.0, 1.677707972978518E9, 0.0, 2023-03-01 13:59:32.978
194.0, 11970.543798273064, 15927.562526173893, 0.0, 0.0, 0.0, 0.0, 0.0, 0.0, -0.26, -0.794, 0.598, 192.0, 0.0, 0.0, 0.0, 0.0, 0.0, 0.0, 0.0, 0.0, 0.0, 1.677707972978537E9, 0.0, 2023-03-01 13:59:32.978
195.0, 11968.643899994362, 15928.948334330124, 0.0, 0.0, 0.0, 0.0, 0.0, 0.0, -0.26, -0.794, 0.598, 192.0, 0.0, 0.0, 0.0, 0.0, 0.0, 0.0, 0.0, 0.0, 0.0, 1.67770797298788E9, 0.0, 2023-03-01 13:59:32.987
196.0, 11963.905330169837, 15928.300133740919, 0.0, 0.0, 0.0, 0.0, 0.0, 0.0, -0.26, -0.794, 0.598, 192.0, 0.0, 0.0, 0.0, 0.0, 0.0, 0.0, 0.0, 0.0, 0.0, 1.677707972987899E9, 0.0, 2023-03-01 13:59:32.987
197.0, 11965.089972625969, 15930.82588086437, 0.0, 0.0, 0.0, 0.0, 0.0, 0.0, -0.254, -0.786, 0.592, 192.0, 248.0, 16.0, 231.0, 112.0, 18.0, 128.0, 0.0, 0.0, 0.0, 1.677707972994116E9, 0.0, 2023-03-01 13:59:32.994
198.0, 11972.197827362756, 15935.184471033153, 0.0, 0.0, 0.0, 0.0, 0.0, 0.0, -0.254, -0.786, 0.592, 192.0, 0.0, 0.0, 0.0, 0.0, 0.0, 0.0, 0.0, 0.0, 0.0, 1.677707972994132E9, 0.0, 2023-03-01 13:59:32.994
199.0, 11974.477705297197, 15935.586802433349, 0.0, 0.0, 0.0, 0.0, 0.0, 0.0, -0.254, -0.786, 0.592, 192.0, 0.0, 0.0, 0.0, 0.0, 0.0, 0.0, 0.0, 0.0, 0.0, 1.677707973001041E9, 0.0, 2023-03-01 13:59:33.001
200.0, 11967.526312771597, 15932.479909954061, 0.0, 0.0, 0.0, 0.0, 0.0, 0.0, -0.254, -0.786, 0.592, 192.0, 0.0, 0.0, 0.0, 0.0, 0.0, 0.0, 0.0, 0.0, 0.0, 1.677707973001056E9, 0.0, 2023-03-01 13:59:33.001
201.0, 11965.648766237351, 15928.098968040822, 0.0, 0.0, 0.0, 0.0, 0.0, 0.0, -0.254, -0.786, 0.592, 192.0, 0.0, 0.0, 0.0, 0.0, 0.0, 0.0, 0.0, 0.0, 0.0, 1.67770797300907E9, 0.0, 2023-03-01 13:59:33.009
202.0, 11969.157990116833, 15929.529479685962, 0.0, 0.0, 0.0, 0.0, 0.0, 0.0, -0.254, -0.786, 0.592, 192.0, 0.0, 0.0, 0.0, 0.0, 0.0, 0.0, 0.0, 0.0, 0.0, 1.677707973009082E9, 0.0, 2023-03-01 13:59:33.009
203.0, 11969.202693605745, 15930.334142486352, 0.0, 0.0, 0.0, 0.0, 0.0, 0.0, -0.254, -0.786, 0.592, 192.0, 0.0, 0.0, 0.0, 0.0, 0.0, 0.0, 0.0, 0.0, 0.0, 1.677707973017055E9, 0.0, 2023-03-01 13:59:33.017
204.0, 11970.119115128413, 15933.57514543237, 0.0, 0.0, 0.0, 0.0, 0.0, 0.0, -0.254, -0.786, 0.592, 192.0, 0.0, 0.0, 0.0, 0.0, 0.0, 0.0, 0.0, 0.0, 0.0, 1.677707973017073E9, 0.0, 2023-03-01 13:59:33.017
205.0, 11969.090934883468, 15929.909459341701, 0.0, 0.0, 0.0, 0.0, 0.0, 0.0, -0.254, -0.786, 0.592, 192.0, 0.0, 0.0, 0.0, 0.0, 0.0, 0.0, 0.0, 0.0, 0.0, 1.6777079730232E9, 0.0, 2023-03-01 13:59:33.023
206.0, 11969.716783728218, 15928.166023274187, 0.0, 0.0, 0.0, 0.0, 0.0, 0.0, -0.254, -0.786, 0.592, 192.0, 0.0, 0.0, 0.0, 0.0, 0.0, 0.0, 0.0, 0.0, 0.0, 1.677707973030645E9, 0.0, 2023-03-01 13:59:33.030
207.0, 11971.527275029097, 15929.238907008043, 0.0, 0.0, 0.0, 0.0, 0.0, 0.0, -0.254, -0.786, 0.592, 192.0, 0.0, 0.0, 0.0, 0.0, 0.0, 0.0, 0.0, 0.0, 0.0, 1.677707973030665E9, 0.0, 2023-03-01 13:59:33.030
208.0, 11970.342632572965, 15929.931811086157, 0.0, 0.0, 0.0, 0.0, 0.0, 0.0, -0.258, -0.79, 0.594, 192.0, 247.0, 240.0, 231.0, 80.0, 18.0, 144.0, 0.0, 0.0, 0.0, 1.677707973038658E9, 0.0, 2023-03-01 13:59:33.038
209.0, 11971.661385495829, 15933.0610553099, 0.0, 0.0, 0.0, 0.0, 0.0, 0.0, -0.258, -0.79, 0.594, 192.0, 0.0, 0.0, 0.0, 0.0, 0.0, 0.0, 0.0, 0.0, 0.0, 1.677707973038683E9, 0.0, 2023-03-01 13:59:33.038
210.0, 11974.589464019475, 15932.524613442973, 0.0, 0.0, 0.0, 0.0, 0.0, 0.0, -0.258, -0.79, 0.594, 192.0, 0.0, 0.0, 0.0, 0.0, 0.0, 0.0, 0.0, 0.0, 0.0, 1.677707973045892E9, 0.0, 2023-03-01 13:59:33.045
211.0, 11972.80132446305, 15929.887107597246, 0.0, 0.0, 0.0, 0.0, 0.0, 0.0, -0.258, -0.79, 0.594, 192.0, 0.0, 0.0, 0.0, 0.0, 0.0, 0.0, 0.0, 0.0, 0.0, 1.677707973045907E9, 0.0, 2023-03-01 13:59:33.045
212.0, 11970.56615001752, 15929.037741307944, 0.0, 0.0, 0.0, 0.0, 0.0, 0.0, -0.258, -0.79, 0.594, 192.0, 0.0, 0.0, 0.0, 0.0, 0.0, 0.0, 0.0, 0.0, 0.0, 1.677707973053283E9, 0.0, 2023-03-01 13:59:33.053
213.0, 11966.878112182392, 15929.216555263587, 0.0, 0.0, 0.0, 0.0, 0.0, 0.0, -0.258, -0.79, 0.594, 192.0, 0.0, 0.0, 0.0, 0.0, 0.0, 0.0, 0.0, 0.0, 0.0, 1.677707973053291E9, 0.0, 2023-03-01 13:59:33.053
214.0, 11968.778010461094, 15930.065921552889, 0.0, 0.0, 0.0, 0.0, 0.0, 0.0, -0.258, -0.79, 0.594, 192.0, 0.0, 0.0, 0.0, 0.0, 0.0, 0.0, 0.0, 0.0, 0.0, 1.677707973061317E9, 0.0, 2023-03-01 13:59:33.061
215.0, 11977.763411732127, 15931.96581983159, 0.0, 0.0, 0.0, 0.0, 0.0, 0.0, -0.258, -0.79, 0.594, 192.0, 0.0, 0.0, 0.0, 0.0, 0.0, 0.0, 0.0, 0.0, 0.0, 1.677707973061334E9, 0.0, 2023-03-01 13:59:33.061
216.0, 11977.428135565298, 15932.457558209606, 0.0, 0.0, 0.0, 0.0, 0.0, 0.0, -0.258, -0.79, 0.594, 192.0, 0.0, 0.0, 0.0, 0.0, 0.0, 0.0, 0.0, 0.0, 0.0, 1.677707973069259E9, 0.0, 2023-03-01 13:59:33.069
217.0, 11974.2765395971, 15934.603325677315, 0.0, 0.0, 0.0, 0.0, 0.0, 0.0, -0.258, -0.79, 0.594, 192.0, 0.0, 0.0, 0.0, 0.0, 0.0, 0.0, 0.0, 0.0, 0.0, 1.677707973069279E9, 0.0, 2023-03-01 13:59:33.069
218.0, 11976.578769275997, 15937.82197687888, 0.0, 0.0, 0.0, 0.0, 0.0, 0.0, -0.258, -0.792, 0.596, 192.0, 247.0, 240.0, 231.0, 64.0, 18.0, 160.0, 0.0, 0.0, 0.0, 1.677707973076022E9, 0.0, 2023-03-01 13:59:33.076
219.0, 11980.445621066765, 15941.15238680272, 0.0, 0.0, 0.0, 0.0, 0.0, 0.0, -0.258, -0.792, 0.596, 192.0, 0.0, 0.0, 0.0, 0.0, 0.0, 0.0, 0.0, 0.0, 0.0, 1.677707973076038E9, 0.0, 2023-03-01 13:59:33.076
220.0, 11970.230873850689, 15932.815186120892, 0.0, 0.0, 0.0, 0.0, 0.0, 0.0, -0.258, -0.792, 0.596, 192.0, 0.0, 0.0, 0.0, 0.0, 0.0, 0.0, 0.0, 0.0, 0.0, 1.677707973083015E9, 0.0, 2023-03-01 13:59:33.083
221.0, 11965.961690659726, 15929.596534919327, 0.0, 0.0, 0.0, 0.0, 0.0, 0.0, -0.258, -0.792, 0.596, 192.0, 0.0, 0.0, 0.0, 0.0, 0.0, 0.0, 0.0, 0.0, 0.0, 1.677707973090981E9, 0.0, 2023-03-01 13:59:33.090
222.0, 11964.553530759042, 15929.954162830612, 0.0, 0.0, 0.0, 0.0, 0.0, 0.0, -0.258, -0.792, 0.596, 192.0, 0.0, 0.0, 0.0, 0.0, 0.0, 0.0, 0.0, 0.0, 0.0, 1.677707973090996E9, 0.0, 2023-03-01 13:59:33.090
223.0, 11968.040402894068, 15929.551831430415, 0.0, 0.0, 0.0, 0.0, 0.0, 0.0, -0.258, -0.792, 0.596, 192.0, 0.0, 0.0, 0.0, 0.0, 0.0, 0.0, 0.0, 0.0, 0.0, 1.677707973098993E9, 0.0, 2023-03-01 13:59:33.098
224.0, 11972.957786674237, 15934.62567742177, 0.0, 0.0, 0.0, 0.0, 0.0, 0.0, -0.258, -0.792, 0.596, 192.0, 0.0, 0.0, 0.0, 0.0, 0.0, 0.0, 0.0, 0.0, 0.0, 1.677707973099005E9, 0.0, 2023-03-01 13:59:33.099
225.0, 11967.526312771597, 15931.496433198028, 0.0, 0.0, 0.0, 0.0, 0.0, 0.0, -0.258, -0.792, 0.596, 192.0, 0.0, 0.0, 0.0, 0.0, 0.0, 0.0, 0.0, 0.0, 0.0, 1.677707973105653E9, 0.0, 2023-03-01 13:59:33.105
226.0, 11968.912120927826, 15933.798662876925, 0.0, 0.0, 0.0, 0.0, 0.0, 0.0, -0.258, -0.792, 0.596, 192.0, 0.0, 0.0, 0.0, 0.0, 0.0, 0.0, 0.0, 0.0, 0.0, 1.677707973105678E9, 0.0, 2023-03-01 13:59:33.105
227.0, 11969.783838961583, 15933.619848921282, 0.0, 0.0, 0.0, 0.0, 0.0, 0.0, -0.258, -0.792, 0.596, 192.0, 0.0, 0.0, 0.0, 0.0, 0.0, 0.0, 0.0, 0.0, 0.0, 1.677707973113451E9, 0.0, 2023-03-01 13:59:33.113
228.0, 11963.391240047365, 15927.473119196073, 0.0, 0.0, 0.0, 0.0, 0.0, 0.0, -0.256, -0.8, 0.594, 192.0, 248.0, 0.0, 231.0, 0.0, 18.0, 144.0, 0.0, 0.0, 0.0, 1.677707973113477E9, 0.0, 2023-03-01 13:59:33.113
229.0, 11961.2231208352, 15923.047473793922, 0.0, 0.0, 0.0, 0.0, 0.0, 0.0, -0.256, -0.8, 0.594, 192.0, 0.0, 0.0, 0.0, 0.0, 0.0, 0.0, 0.0, 0.0, 0.0, 1.67770797312163E9, 0.0, 2023-03-01 13:59:33.121
230.0, 11962.407763291332, 15922.555735415905, 0.0, 0.0, 0.0, 0.0, 0.0, 0.0, -0.256, -0.8, 0.594, 192.0, 0.0, 0.0, 0.0, 0.0, 0.0, 0.0, 0.0, 0.0, 0.0, 1.677707973121658E9, 0.0, 2023-03-01 13:59:33.121
231.0, 11967.101629626946, 15926.288476739941, 0.0, 0.0, 0.0, 0.0, 0.0, 0.0, -0.256, -0.8, 0.594, 192.0, 0.0, 0.0, 0.0, 0.0, 0.0, 0.0, 0.0, 0.0, 0.0, 1.677707973128778E9, 0.0, 2023-03-01 13:59:33.128
232.0, 11970.2755773396, 15930.267087252985, 0.0, 0.0, 0.0, 0.0, 0.0, 0.0, -0.256, -0.8, 0.594, 192.0, 0.0, 0.0, 0.0, 0.0, 0.0, 0.0, 0.0, 0.0, 0.0, 1.677707973128791E9, 0.0, 2023-03-01 13:59:33.128
233.0, 11969.985004661681, 15933.418683221184, 0.0, 0.0, 0.0, 0.0, 0.0, 0.0, -0.256, -0.8, 0.594, 192.0, 0.0, 0.0, 0.0, 0.0, 0.0, 0.0, 0.0, 0.0, 0.0, 1.677707973136232E9, 0.0, 2023-03-01 13:59:33.136
234.0, 11968.554493016542, 15930.49060469754, 0.0, 0.0, 0.0, 0.0, 0.0, 0.0, -0.256, -0.8, 0.594, 192.0, 0.0, 0.0, 0.0, 0.0, 0.0, 0.0, 0.0, 0.0, 0.0, 1.677707973136244E9, 0.0, 2023-03-01 13:59:33.136
235.0, 11967.436905793777, 15928.702465141114, 0.0, 0.0, 0.0, 0.0, 0.0, 0.0, -0.256, -0.8, 0.594, 192.0, 0.0, 0.0, 0.0, 0.0, 0.0, 0.0, 0.0, 0.0, 0.0, 1.677707973143265E9, 0.0, 2023-03-01 13:59:33.143
236.0, 11969.828542450494, 15929.373017474774, 0.0, 0.0, 0.0, 0.0, 0.0, 0.0, -0.256, -0.8, 0.594, 192.0, 0.0, 0.0, 0.0, 0.0, 0.0, 0.0, 0.0, 0.0, 0.0, 1.677707973151277E9, 0.0, 2023-03-01 13:59:33.151
237.0, 11972.264882596122, 15929.641238408238, 0.0, 0.0, 0.0, 0.0, 0.0, 0.0, -0.256, -0.8, 0.594, 192.0, 0.0, 0.0, 0.0, 0.0, 0.0, 0.0, 0.0, 0.0, 0.0, 1.677707973151298E9, 0.0, 2023-03-01 13:59:33.151
238.0, 11968.532141272086, 15927.741340129536, 0.0, 0.0, 0.0, 0.0, 0.0, 0.0, -0.262, -0.792, 0.594, 192.0, 247.0, 208.0, 231.0, 64.0, 18.0, 144.0, 0.0, 0.0, 0.0, 1.677707973158488E9, 0.0, 2023-03-01 13:59:33.158
239.0, 11968.979176161192, 15925.349703472819, 0.0, 0.0, 0.0, 0.0, 0.0, 0.0, -0.262, -0.792, 0.594, 192.0, 0.0, 0.0, 0.0, 0.0, 0.0, 0.0, 0.0, 0.0, 0.0, 1.677707973158513E9, 0.0, 2023-03-01 13:59:33.158
240.0, 11972.734269229684, 15926.467290695584, 0.0, 0.0, 0.0, 0.0, 0.0, 0.0, -0.262, -0.792, 0.594, 192.0, 0.0, 0.0, 0.0, 0.0, 0.0, 0.0, 0.0, 0.0, 0.0, 1.677707973167366E9, 0.0, 2023-03-01 13:59:33.167
241.0, 11976.489362298174, 15929.037741307944, 0.0, 0.0, 0.0, 0.0, 0.0, 0.0, -0.262, -0.792, 0.594, 192.0, 0.0, 0.0, 0.0, 0.0, 0.0, 0.0, 0.0, 0.0, 0.0, 1.677707973167382E9, 0.0, 2023-03-01 13:59:33.167
242.0, 11977.65165300985, 15930.557659930904, 0.0, 0.0, 0.0, 0.0, 0.0, 0.0, -0.262, -0.792, 0.594, 192.0, 0.0, 0.0, 0.0, 0.0, 0.0, 0.0, 0.0, 0.0, 0.0, 1.677707973173847E9, 0.0, 2023-03-01 13:59:33.173
243.0, 11979.350385588454, 15933.999828577022, 0.0, 0.0, 0.0, 0.0, 0.0, 0.0, -0.262, -0.792, 0.594, 192.0, 0.0, 0.0, 0.0, 0.0, 0.0, 0.0, 0.0, 0.0, 0.0, 1.677707973173856E9, 0.0, 2023-03-01 13:59:33.173
244.0, 11981.94318794527, 15937.665514667693, 0.0, 0.0, 0.0, 0.0, 0.0, 0.0, -0.262, -0.792, 0.594, 192.0, 0.0, 0.0, 0.0, 0.0, 0.0, 0.0, 0.0, 0.0, 0.0, 1.67770797318196E9, 0.0, 2023-03-01 13:59:33.181
245.0, 11980.892655955871, 15933.418683221184, 0.0, 0.0, 0.0, 0.0, 0.0, 0.0, -0.262, -0.792, 0.594, 192.0, 0.0, 0.0, 0.0, 0.0, 0.0, 0.0, 0.0, 0.0, 0.0, 1.677707973181976E9, 0.0, 2023-03-01 13:59:33.181
246.0, 11974.298891341556, 15930.82588086437, 0.0, 0.0, 0.0, 0.0, 0.0, 0.0, -0.262, -0.792, 0.594, 192.0, 0.0, 0.0, 0.0, 0.0, 0.0, 0.0, 0.0, 0.0, 0.0, 1.677707973188504E9, 0.0, 2023-03-01 13:59:33.188
247.0, 11976.578769275997, 15932.994000076533, 0.0, 0.0, 0.0, 0.0, 0.0, 0.0, -0.262, -0.792, 0.594, 192.0, 0.0, 0.0, 0.0, 0.0, 0.0, 0.0, 0.0, 0.0, 0.0, 1.677707973188512E9, 0.0, 2023-03-01 13:59:33.188
248.0, 11980.400917577854, 15932.457558209606, 0.0, 0.0, 0.0, 0.0, 0.0, 0.0, -0.256, -0.798, 0.588, 192.0, 248.0, 0.0, 231.0, 16.0, 18.0, 96.0, 0.0, 0.0, 0.0, 1.677707973196501E9, 0.0, 2023-03-01 13:59:33.196
249.0, 11978.970405932714, 15928.948334330124, 0.0, 0.0, 0.0, 0.0, 0.0, 0.0, -0.256, -0.798, 0.588, 192.0, 0.0, 0.0, 0.0, 0.0, 0.0, 0.0, 0.0, 0.0, 0.0, 1.67770797319652E9, 0.0, 2023-03-01 13:59:33.196
250.0, 11973.740097730173, 15926.087311039844, 0.0, 0.0, 0.0, 0.0, 0.0, 0.0, -0.256, -0.798, 0.588, 192.0, 0.0, 0.0, 0.0, 0.0, 0.0, 0.0, 0.0, 0.0, 0.0, 1.677707973203466E9, 0.0, 2023-03-01 13:59:33.203
251.0, 11973.516580285619, 15931.943468087135, 0.0, 0.0, 0.0, 0.0, 0.0, 0.0, -0.256, -0.798, 0.588, 192.0, 0.0, 0.0, 0.0, 0.0, 0.0, 0.0, 0.0, 0.0, 0.0, 1.677707973203481E9, 0.0, 2023-03-01 13:59:33.203
252.0, 11982.323167601011, 15937.352590245318, 0.0, 0.0, 0.0, 0.0, 0.0, 0.0, -0.256, -0.798, 0.588, 192.0, 0.0, 0.0, 0.0, 0.0, 0.0, 0.0, 0.0, 0.0, 0.0, 1.677707973211794E9, 0.0, 2023-03-01 13:59:33.211
253.0, 11979.819772222016, 15933.955125088112, 0.0, 0.0, 0.0, 0.0, 0.0, 0.0, -0.256, -0.798, 0.588, 192.0, 0.0, 0.0, 0.0, 0.0, 0.0, 0.0, 0.0, 0.0, 0.0, 1.677707973219513E9, 0.0, 2023-03-01 13:59:33.219
254.0, 11972.398993062854, 15927.048436051422, 0.0, 0.0, 0.0, 0.0, 0.0, 0.0, -0.256, -0.798, 0.588, 192.0, 0.0, 0.0, 0.0, 0.0, 0.0, 0.0, 0.0, 0.0, 0.0, 1.677707973219527E9, 0.0, 2023-03-01 13:59:33.219
255.0, 11972.063716896024, 15928.635409907749, 0.0, 0.0, 0.0, 0.0, 0.0, 0.0, -0.256, -0.798, 0.588, 192.0, 0.0, 0.0, 0.0, 0.0, 0.0, 0.0, 0.0, 0.0, 0.0, 1.677707973226197E9, 0.0, 2023-03-01 13:59:33.226
0.0, 11972.823676207505, 15929.44007270814, 0.0, 0.0, 0.0, 0.0, 0.0, 0.0, -0.256, -0.798, 0.588, 192.0, 0.0, 0.0, 0.0, 0.0, 0.0, 0.0, 0.0, 0.0, 0.0, 1.677707973226209E9, 0.0, 2023-03-01 13:59:33.226
1.0, 11976.914045442825, 15931.697598898125, 0.0, 0.0, 0.0, 0.0, 0.0, 0.0, -0.256, -0.798, 0.588, 192.0, 0.0, 0.0, 0.0, 0.0, 0.0, 0.0, 0.0, 0.0, 0.0, 1.677707973234138E9, 0.0, 2023-03-01 13:59:33.234
2.0, 11968.42038254981, 15926.15436627321, 0.0, 0.0, 0.0, 0.0, 0.0, 0.0, -0.262, -0.794, 0.592, 192.0, 247.0, 208.0, 231.0, 48.0, 18.0, 128.0, 0.0, 0.0, 0.0, 1.677707973234148E9, 0.0, 2023-03-01 13:59:33.234
3.0, 11966.699298226751, 15923.315694727386, 0.0, 0.0, 0.0, 0.0, 0.0, 0.0, -0.262, -0.794, 0.592, 192.0, 0.0, 0.0, 0.0, 0.0, 0.0, 0.0, 0.0, 0.0, 0.0, 1.677707973240809E9, 0.0, 2023-03-01 13:59:33.240
4.0, 11965.55935925953, 15926.15436627321, 0.0, 0.0, 0.0, 0.0, 0.0, 0.0, -0.262, -0.794, 0.592, 192.0, 0.0, 0.0, 0.0, 0.0, 0.0, 0.0, 0.0, 0.0, 0.0, 1.677707973240824E9, 0.0, 2023-03-01 13:59:33.240
5.0, 11969.895597683859, 15932.72577914307, 0.0, 0.0, 0.0, 0.0, 0.0, 0.0, -0.262, -0.794, 0.592, 192.0, 0.0, 0.0, 0.0, 0.0, 0.0, 0.0, 0.0, 0.0, 0.0, 1.677707973248864E9, 0.0, 2023-03-01 13:59:33.248
6.0, 11968.353327316443, 15930.378845975263, 0.0, 0.0, 0.0, 0.0, 0.0, 0.0, -0.262, -0.794, 0.592, 192.0, 0.0, 0.0, 0.0, 0.0, 0.0, 0.0, 0.0, 0.0, 0.0, 1.677707973248882E9, 0.0, 2023-03-01 13:59:33.248
7.0, 11960.351402801443, 15925.930848828657, 0.0, 0.0, 0.0, 0.0, 0.0, 0.0, -0.262, -0.794, 0.592, 192.0, 0.0, 0.0, 0.0, 0.0, 0.0, 0.0, 0.0, 0.0, 0.0, 1.677707973256788E9, 0.0, 2023-03-01 13:59:33.256
8.0, 11964.12884761439, 15922.91336332719, 0.0, 0.0, 0.0, 0.0, 0.0, 0.0, -0.262, -0.794, 0.592, 192.0, 0.0, 0.0, 0.0, 0.0, 0.0, 0.0, 0.0, 0.0, 0.0, 1.677707973256806E9, 0.0, 2023-03-01 13:59:33.256
9.0, 11962.251301080145, 15923.092177282833, 0.0, 0.0, 0.0, 0.0, 0.0, 0.0, -0.262, -0.794, 0.592, 192.0, 0.0, 0.0, 0.0, 0.0, 0.0, 0.0, 0.0, 0.0, 0.0, 1.677707973263938E9, 0.0, 2023-03-01 13:59:33.263
10.0, 11960.396106290355, 15923.226287749565, 0.0, 0.0, 0.0, 0.0, 0.0, 0.0, -0.262, -0.794, 0.592, 192.0, 0.0, 0.0, 0.0, 0.0, 0.0, 0.0, 0.0, 0.0, 0.0, 1.677707973263948E9, 0.0, 2023-03-01 13:59:33.263
11.0, 11954.450542265242, 15916.81133709089, 0.0, 0.0, 0.0, 0.0, 0.0, 0.0, -0.262, -0.794, 0.592, 192.0, 0.0, 0.0, 0.0, 0.0, 0.0, 0.0, 0.0, 0.0, 0.0, 1.677707973270325E9, 0.0, 2023-03-01 13:59:33.270
12.0, 11955.74694344365, 15914.419700434173, 0.0, 0.0, 0.0, 0.0, 0.0, 0.0, -0.262, -0.79, 0.592, 192.0, 247.0, 208.0, 231.0, 80.0, 18.0, 128.0, 0.0, 0.0, 0.0, 1.677707973278449E9, 0.0, 2023-03-01 13:59:33.278
13.0, 11956.037516121569, 15916.185488246143, 0.0, 0.0, 0.0, 0.0, 0.0, 0.0, -0.262, -0.79, 0.592, 192.0, 0.0, 0.0, 0.0, 0.0, 0.0, 0.0, 0.0, 0.0, 0.0, 1.677707973278462E9, 0.0, 2023-03-01 13:59:33.278
14.0, 11961.55839700203, 15920.968761559578, 0.0, 0.0, 0.0, 0.0, 0.0, 0.0, -0.262, -0.79, 0.592, 192.0, 0.0, 0.0, 0.0, 0.0, 0.0, 0.0, 0.0, 0.0, 0.0, 1.677707973286518E9, 0.0, 2023-03-01 13:59:33.286
15.0, 11960.060830123524, 15920.186450503643, 0.0, 0.0, 0.0, 0.0, 0.0, 0.0, -0.262, -0.79, 0.592, 192.0, 0.0, 0.0, 0.0, 0.0, 0.0, 0.0, 0.0, 0.0, 0.0, 1.677707973286541E9, 0.0, 2023-03-01 13:59:33.286
16.0, 11956.50690275513, 15915.984322546044, 0.0, 0.0, 0.0, 0.0, 0.0, 0.0, -0.262, -0.79, 0.592, 192.0, 0.0, 0.0, 0.0, 0.0, 0.0, 0.0, 0.0, 0.0, 0.0, 1.677707973293641E9, 0.0, 2023-03-01 13:59:33.293
17.0, 11960.686678968274, 15915.693749868125, 0.0, 0.0, 0.0, 0.0, 0.0, 0.0, -0.262, -0.79, 0.592, 192.0, 0.0, 0.0, 0.0, 0.0, 0.0, 0.0, 0.0, 0.0, 0.0, 1.677707973293666E9, 0.0, 2023-03-01 13:59:33.293
18.0, 11959.390277789866, 15915.045549278922, 0.0, 0.0, 0.0, 0.0, 0.0, 0.0, -0.262, -0.79, 0.592, 192.0, 0.0, 0.0, 0.0, 0.0, 0.0, 0.0, 0.0, 0.0, 0.0, 1.677707973301039E9, 0.0, 2023-03-01 13:59:33.301
19.0, 11949.98019337418, 15912.117470755276, 0.0, 0.0, 0.0, 0.0, 0.0, 0.0, -0.262, -0.79, 0.592, 192.0, 0.0, 0.0, 0.0, 0.0, 0.0, 0.0, 0.0, 0.0, 0.0, 1.677707973301054E9, 0.0, 2023-03-01 13:59:33.301
20.0, 11950.762504430117, 15912.564505644383, 0.0, 0.0, 0.0, 0.0, 0.0, 0.0, -0.262, -0.79, 0.592, 192.0, 0.0, 0.0, 0.0, 0.0, 0.0, 0.0, 0.0, 0.0, 0.0, 1.677707973309019E9, 0.0, 2023-03-01 13:59:33.309
21.0, 11958.98794638967, 15917.303075468908, 0.0, 0.0, 0.0, 0.0, 0.0, 0.0, -0.262, -0.79, 0.592, 192.0, 0.0, 0.0, 0.0, 0.0, 0.0, 0.0, 0.0, 0.0, 0.0, 1.677707973309032E9, 0.0, 2023-03-01 13:59:33.309
22.0, 11960.731382457183, 15916.565467901883, 0.0, 0.0, 0.0, 0.0, 0.0, 0.0, -0.262, -0.79, 0.596, 192.0, 247.0, 208.0, 231.0, 80.0, 18.0, 160.0, 0.0, 0.0, 0.0, 1.677707973317038E9, 0.0, 2023-03-01 13:59:33.317
23.0, 11952.46123700872, 15912.34098819983, 0.0, 0.0, 0.0, 0.0, 0.0, 0.0, -0.262, -0.79, 0.596, 192.0, 0.0, 0.0, 0.0, 0.0, 0.0, 0.0, 0.0, 0.0, 0.0, 1.677707973317049E9, 0.0, 2023-03-01 13:59:33.317
24.0, 11954.428190520786, 15913.81620333388, 0.0, 0.0, 0.0, 0.0, 0.0, 0.0, -0.262, -0.79, 0.596, 192.0, 0.0, 0.0, 0.0, 0.0, 0.0, 0.0, 0.0, 0.0, 0.0, 1.677707973323632E9, 0.0, 2023-03-01 13:59:33.323
25.0, 11960.574920245996, 15915.537287656938, 0.0, 0.0, 0.0, 0.0, 0.0, 0.0, -0.262, -0.79, 0.596, 192.0, 0.0, 0.0, 0.0, 0.0, 0.0, 0.0, 0.0, 0.0, 0.0, 1.67770797332364E9, 0.0, 2023-03-01 13:59:33.323
26.0, 11962.675984224796, 15918.420662691673, 0.0, 0.0, 0.0, 0.0, 0.0, 0.0, -0.262, -0.79, 0.596, 192.0, 0.0, 0.0, 0.0, 0.0, 0.0, 0.0, 0.0, 0.0, 0.0, 1.677707973330723E9, 0.0, 2023-03-01 13:59:33.330
27.0, 11961.670155724307, 15918.778290602959, 0.0, 0.0, 0.0, 0.0, 0.0, 0.0, -0.262, -0.79, 0.596, 192.0, 0.0, 0.0, 0.0, 0.0, 0.0, 0.0, 0.0, 0.0, 0.0, 1.677707973338739E9, 0.0, 2023-03-01 13:59:33.338
28.0, 11956.149274843845, 15913.749148100515, 0.0, 0.0, 0.0, 0.0, 0.0, 0.0, -0.262, -0.79, 0.596, 192.0, 0.0, 0.0, 0.0, 0.0, 0.0, 0.0, 0.0, 0.0, 0.0, 1.677707973338755E9, 0.0, 2023-03-01 13:59:33.338
29.0, 11953.757638187128, 15912.318636455375, 0.0, 0.0, 0.0, 0.0, 0.0, 0.0, -0.262, -0.79, 0.596, 192.0, 0.0, 0.0, 0.0, 0.0, 0.0, 0.0, 0.0, 0.0, 0.0, 1.677707973346708E9, 0.0, 2023-03-01 13:59:33.346
30.0, 11958.116228355913, 15914.285589967441, 0.0, 0.0, 0.0, 0.0, 0.0, 0.0, -0.262, -0.79, 0.596, 192.0, 0.0, 0.0, 0.0, 0.0, 0.0, 0.0, 0.0, 0.0, 0.0, 1.677707973346729E9, 0.0, 2023-03-01 13:59:33.346
31.0, 11955.45637076573, 15913.547982400416, 0.0, 0.0, 0.0, 0.0, 0.0, 0.0, -0.262, -0.79, 0.596, 192.0, 0.0, 0.0, 0.0, 0.0, 0.0, 0.0, 0.0, 0.0, 0.0, 1.677707973353365E9, 0.0, 2023-03-01 13:59:33.353
32.0, 11953.467065509209, 15914.24088647853, 0.0, 0.0, 0.0, 0.0, 0.0, 0.0, -0.262, -0.79, 0.596, 192.0, 0.0, 0.0, 0.0, 0.0, 0.0, 0.0, 0.0, 0.0, 0.0, 1.677707973353376E9, 0.0, 2023-03-01 13:59:33.353
33.0, 11952.572995730996, 15913.704444611603, 0.0, 0.0, 0.0, 0.0, 0.0, 0.0, -0.264, -0.794, 0.594, 192.0, 247.0, 192.0, 231.0, 48.0, 18.0, 144.0, 0.0, 0.0, 0.0, 1.67770797336131E9, 0.0, 2023-03-01 13:59:33.361
34.0, 11955.590481232462, 15919.493546425529, 0.0, 0.0, 0.0, 0.0, 0.0, 0.0, -0.264, -0.794, 0.594, 192.0, 0.0, 0.0, 0.0, 0.0, 0.0, 0.0, 0.0, 0.0, 0.0, 1.677707973361322E9, 0.0, 2023-03-01 13:59:33.361
35.0, 11957.266862066612, 15919.71706387008, 0.0, 0.0, 0.0, 0.0, 0.0, 0.0, -0.264, -0.794, 0.594, 192.0, 0.0, 0.0, 0.0, 0.0, 0.0, 0.0, 0.0, 0.0, 0.0, 1.67770797336929E9, 0.0, 2023-03-01 13:59:33.369
36.0, 11954.204673076234, 15917.43718593564, 0.0, 0.0, 0.0, 0.0, 0.0, 0.0, -0.264, -0.794, 0.594, 192.0, 0.0, 0.0, 0.0, 0.0, 0.0, 0.0, 0.0, 0.0, 0.0, 1.677707973369309E9, 0.0, 2023-03-01 13:59:33.369
37.0, 11957.579786488985, 15917.124261513265, 0.0, 0.0, 0.0, 0.0, 0.0, 0.0, -0.264, -0.794, 0.594, 192.0, 0.0, 0.0, 0.0, 0.0, 0.0, 0.0, 0.0, 0.0, 0.0, 1.677707973376409E9, 0.0, 2023-03-01 13:59:33.376
38.0, 11962.02778363559, 15918.107738269298, 0.0, 0.0, 0.0, 0.0, 0.0, 0.0, -0.264, -0.794, 0.594, 192.0, 0.0, 0.0, 0.0, 0.0, 0.0, 0.0, 0.0, 0.0, 0.0, 1.677707973376434E9, 0.0, 2023-03-01 13:59:33.376
39.0, 11962.765391202616, 15919.426491192162, 0.0, 0.0, 0.0, 0.0, 0.0, 0.0, -0.264, -0.794, 0.594, 192.0, 0.0, 0.0, 0.0, 0.0, 0.0, 0.0, 0.0, 0.0, 0.0, 1.677707973383995E9, 0.0, 2023-03-01 13:59:33.383
40.0, 11962.251301080145, 15920.81229934839, 0.0, 0.0, 0.0, 0.0, 0.0, 0.0, -0.264, -0.794, 0.594, 192.0, 0.0, 0.0, 0.0, 0.0, 0.0, 0.0, 0.0, 0.0, 0.0, 1.67770797338402E9, 0.0, 2023-03-01 13:59:33.384
41.0, 11961.111362112924, 15921.236982493041, 0.0, 0.0, 0.0, 0.0, 0.0, 0.0, -0.264, -0.794, 0.594, 192.0, 0.0, 0.0, 0.0, 0.0, 0.0, 0.0, 0.0, 0.0, 0.0, 1.677707973390984E9, 0.0, 2023-03-01 13:59:33.390
42.0, 11965.000565648148, 15927.20489826261, 0.0, 0.0, 0.0, 0.0, 0.0, 0.0, -0.264, -0.794, 0.594, 192.0, 0.0, 0.0, 0.0, 0.0, 0.0, 0.0, 0.0, 0.0, 0.0, 1.677707973399002E9, 0.0, 2023-03-01 13:59:33.399
43.0, 11961.066658624013, 15925.796738361925, 0.0, 0.0, 0.0, 0.0, 0.0, 0.0, -0.256, -0.8, 0.592, 192.0, 248.0, 0.0, 231.0, 0.0, 18.0, 128.0, 0.0, 0.0, 0.0, 1.677707973399016E9, 0.0, 2023-03-01 13:59:33.399
44.0, 11953.914100398315, 15918.934752814146, 0.0, 0.0, 0.0, 0.0, 0.0, 0.0, -0.256, -0.8, 0.592, 192.0, 0.0, 0.0, 0.0, 0.0, 0.0, 0.0, 0.0, 0.0, 0.0, 1.677707973406067E9, 0.0, 2023-03-01 13:59:33.406
45.0, 11953.847045164948, 15917.14661325772, 0.0, 0.0, 0.0, 0.0, 0.0, 0.0, -0.256, -0.8, 0.592, 192.0, 0.0, 0.0, 0.0, 0.0, 0.0, 0.0, 0.0, 0.0, 0.0, 1.677707973406076E9, 0.0, 2023-03-01 13:59:33.406
46.0, 11958.004469633635, 15919.068863280878, 0.0, 0.0, 0.0, 0.0, 0.0, 0.0, -0.256, -0.8, 0.592, 192.0, 0.0, 0.0, 0.0, 0.0, 0.0, 0.0, 0.0, 0.0, 0.0, 1.677707973413649E9, 0.0, 2023-03-01 13:59:33.413
47.0, 11959.993774890158, 15922.086348782344, 0.0, 0.0, 0.0, 0.0, 0.0, 0.0, -0.256, -0.8, 0.592, 192.0, 0.0, 0.0, 0.0, 0.0, 0.0, 0.0, 0.0, 0.0, 0.0, 1.677707973413669E9, 0.0, 2023-03-01 13:59:33.413
48.0, 11953.467065509209, 15916.923095813168, 0.0, 0.0, 0.0, 0.0, 0.0, 0.0, -0.256, -0.8, 0.592, 192.0, 0.0, 0.0, 0.0, 0.0, 0.0, 0.0, 0.0, 0.0, 0.0, 1.677707973421601E9, 0.0, 2023-03-01 13:59:33.421
49.0, 11954.875225409893, 15918.063034780389, 0.0, 0.0, 0.0, 0.0, 0.0, 0.0, -0.256, -0.8, 0.592, 192.0, 0.0, 0.0, 0.0, 0.0, 0.0, 0.0, 0.0, 0.0, 0.0, 1.677707973421629E9, 0.0, 2023-03-01 13:59:33.421
50.0, 11959.502036512142, 15922.287514482441, 0.0, 0.0, 0.0, 0.0, 0.0, 0.0, -0.256, -0.8, 0.592, 192.0, 0.0, 0.0, 0.0, 0.0, 0.0, 0.0, 0.0, 0.0, 0.0, 1.677707973428872E9, 0.0, 2023-03-01 13:59:33.428
51.0, 11964.218254592211, 15925.193241261632, 0.0, 0.0, 0.0, 0.0, 0.0, 0.0, -0.256, -0.8, 0.592, 192.0, 0.0, 0.0, 0.0, 0.0, 0.0, 0.0, 0.0, 0.0, 0.0, 1.67770797342889E9, 0.0, 2023-03-01 13:59:33.428
52.0, 11960.932548157281, 15925.372055217274, 0.0, 0.0, 0.0, 0.0, 0.0, 0.0, -0.256, -0.8, 0.592, 192.0, 0.0, 0.0, 0.0, 0.0, 0.0, 0.0, 0.0, 0.0, 0.0, 1.677707973436255E9, 0.0, 2023-03-01 13:59:33.436
53.0, 11956.79747543305, 15923.248639494019, 0.0, 0.0, 0.0, 0.0, 0.0, 0.0, -0.26, -0.81, 0.6, 192.0, 247.0, 224.0, 230.0, 176.0, 18.0, 192.0, 0.0, 0.0, 0.0, 1.677707973436269E9, 0.0, 2023-03-01 13:59:33.436
54.0, 11955.188149832267, 15920.611133648294, 0.0, 0.0, 0.0, 0.0, 0.0, 0.0, -0.26, -0.81, 0.6, 192.0, 0.0, 0.0, 0.0, 0.0, 0.0, 0.0, 0.0, 0.0, 0.0, 1.677707973444271E9, 0.0, 2023-03-01 13:59:33.444
55.0, 11955.970460888204, 15917.325427213364, 0.0, 0.0, 0.0, 0.0, 0.0, 0.0, -0.26, -0.81, 0.6, 192.0, 0.0, 0.0, 0.0, 0.0, 0.0, 0.0, 0.0, 0.0, 0.0, 1.677707973444287E9, 0.0, 2023-03-01 13:59:33.444
56.0, 11957.870359166904, 15916.856040579802, 0.0, 0.0, 0.0, 0.0, 0.0, 0.0, -0.26, -0.81, 0.6, 192.0, 0.0, 0.0, 0.0, 0.0, 0.0, 0.0, 0.0, 0.0, 0.0, 1.677707973451266E9, 0.0, 2023-03-01 13:59:33.451
57.0, 11954.450542265242, 15915.20201149011, 0.0, 0.0, 0.0, 0.0, 0.0, 0.0, -0.26, -0.81, 0.6, 192.0, 0.0, 0.0, 0.0, 0.0, 0.0, 0.0, 0.0, 0.0, 0.0, 1.677707973451274E9, 0.0, 2023-03-01 13:59:33.451
58.0, 11951.991850375158, 15911.603380632805, 0.0, 0.0, 0.0, 0.0, 0.0, 0.0, -0.26, -0.81, 0.6, 192.0, 0.0, 0.0, 0.0, 0.0, 0.0, 0.0, 0.0, 0.0, 0.0, 1.677707973458525E9, 0.0, 2023-03-01 13:59:33.458
59.0, 11961.089010368469, 15920.007636548, 0.0, 0.0, 0.0, 0.0, 0.0, 0.0, -0.26, -0.81, 0.6, 192.0, 0.0, 0.0, 0.0, 0.0, 0.0, 0.0, 0.0, 0.0, 0.0, 1.677707973465868E9, 0.0, 2023-03-01 13:59:33.465
60.0, 11959.882016167881, 15921.415796448684, 0.0, 0.0, 0.0, 0.0, 0.0, 0.0, -0.26, -0.81, 0.6, 192.0, 0.0, 0.0, 0.0, 0.0, 0.0, 0.0, 0.0, 0.0, 0.0, 1.677707973465899E9, 0.0, 2023-03-01 13:59:33.465
61.0, 11957.244510322156, 15919.538249914438, 0.0, 0.0, 0.0, 0.0, 0.0, 0.0, -0.26, -0.81, 0.6, 192.0, 0.0, 0.0, 0.0, 0.0, 0.0, 0.0, 0.0, 0.0, 0.0, 1.677707973473923E9, 0.0, 2023-03-01 13:59:33.473
62.0, 11957.468027766708, 15919.828822592357, 0.0, 0.0, 0.0, 0.0, 0.0, 0.0, -0.26, -0.81, 0.6, 192.0, 0.0, 0.0, 0.0, 0.0, 0.0, 0.0, 0.0, 0.0, 0.0, 1.677707973473938E9, 0.0, 2023-03-01 13:59:33.473
63.0, 11959.144408600856, 15921.616962148782, 0.0, 0.0, 0.0, 0.0, 0.0, 0.0, -0.26, -0.798, 0.596, 192.0, 247.0, 224.0, 231.0, 16.0, 18.0, 160.0, 0.0, 0.0, 0.0, 1.677707973481927E9, 0.0, 2023-03-01 13:59:33.481
64.0, 11963.234777836178, 15922.287514482441, 0.0, 0.0, 0.0, 0.0, 0.0, 0.0, -0.26, -0.798, 0.596, 192.0, 0.0, 0.0, 0.0, 0.0, 0.0, 0.0, 0.0, 0.0, 0.0, 1.677707973481939E9, 0.0, 2023-03-01 13:59:33.481
65.0, 11955.389315532366, 15914.86673532328, 0.0, 0.0, 0.0, 0.0, 0.0, 0.0, -0.26, -0.798, 0.596, 192.0, 0.0, 0.0, 0.0, 0.0, 0.0, 0.0, 0.0, 0.0, 0.0, 1.677707973488508E9, 0.0, 2023-03-01 13:59:33.488
66.0, 11947.1191700839, 15908.876467809258, 0.0, 0.0, 0.0, 0.0, 0.0, 0.0, -0.26, -0.798, 0.596, 192.0, 0.0, 0.0, 0.0, 0.0, 0.0, 0.0, 0.0, 0.0, 0.0, 1.677707973488525E9, 0.0, 2023-03-01 13:59:33.488
67.0, 11953.109437597925, 15911.29045621043, 0.0, 0.0, 0.0, 0.0, 0.0, 0.0, -0.26, -0.798, 0.596, 192.0, 0.0, 0.0, 0.0, 0.0, 0.0, 0.0, 0.0, 0.0, 0.0, 1.677707973496507E9, 0.0, 2023-03-01 13:59:33.496
68.0, 11955.188149832267, 15913.726796356059, 0.0, 0.0, 0.0, 0.0, 0.0, 0.0, -0.26, -0.798, 0.596, 192.0, 0.0, 0.0, 0.0, 0.0, 0.0, 0.0, 0.0, 0.0, 0.0, 1.677707973496515E9, 0.0, 2023-03-01 13:59:33.496
69.0, 11950.382524774377, 15912.497450411018, 0.0, 0.0, 0.0, 0.0, 0.0, 0.0, -0.26, -0.798, 0.596, 192.0, 0.0, 0.0, 0.0, 0.0, 0.0, 0.0, 0.0, 0.0, 0.0, 1.677707973504572E9, 0.0, 2023-03-01 13:59:33.504
70.0, 11945.97923111668, 15910.48579341004, 0.0, 0.0, 0.0, 0.0, 0.0, 0.0, -0.26, -0.798, 0.596, 192.0, 0.0, 0.0, 0.0, 0.0, 0.0, 0.0, 0.0, 0.0, 0.0, 1.677707973504592E9, 0.0, 2023-03-01 13:59:33.504
71.0, 11950.717800941205, 15914.173831245165, 0.0, 0.0, 0.0, 0.0, 0.0, 0.0, -0.26, -0.798, 0.596, 192.0, 0.0, 0.0, 0.0, 0.0, 0.0, 0.0, 0.0, 0.0, 0.0, 1.677707973511683E9, 0.0, 2023-03-01 13:59:33.511
72.0, 11951.947146886248, 15911.268104465975, 0.0, 0.0, 0.0, 0.0, 0.0, 0.0, -0.26, -0.798, 0.596, 192.0, 0.0, 0.0, 0.0, 0.0, 0.0, 0.0, 0.0, 0.0, 0.0, 1.677707973511701E9, 0.0, 2023-03-01 13:59:33.511
73.0, 11945.621603205396, 15908.0047497755, 0.0, 0.0, 0.0, 0.0, 0.0, 0.0, -0.26, -0.794, 0.596, 192.0, 247.0, 224.0, 231.0, 48.0, 18.0, 160.0, 0.0, 0.0, 0.0, 1.67770797351811E9, 0.0, 2023-03-01 13:59:33.518
74.0, 11943.453483993231, 15905.635464863237, 0.0, 0.0, 0.0, 0.0, 0.0, 0.0, -0.26, -0.794, 0.596, 192.0, 0.0, 0.0, 0.0, 0.0, 0.0, 0.0, 0.0, 0.0, 0.0, 1.677707973526165E9, 0.0, 2023-03-01 13:59:33.526
75.0, 11950.40487651883, 15908.474136409062, 0.0, 0.0, 0.0, 0.0, 0.0, 0.0, -0.26, -0.794, 0.596, 192.0, 0.0, 0.0, 0.0, 0.0, 0.0, 0.0, 0.0, 0.0, 0.0, 1.677707973526176E9, 0.0, 2023-03-01 13:59:33.526
