%OpenBCI Raw EEG Data
%Number of channels = 8
%Sample Rate = 250 Hz
%Board = OpenBCI_GUI$BoardCytonSerial
Sample Index, EXG Channel 0, EXG Channel 1, EXG Channel 2, EXG Channel 3, EXG Channel 4, EXG Channel 5, EXG Channel 6, EXG Channel 7, Accel Channel 0, Accel Channel 1, Accel Channel 2, Other, Other, Other, Other, Other, Other, Other, Analog Channel 0, Analog Channel 1, Analog Channel 2, Timestamp, Other, Timestamp (Formatted)
185.0, 11051.171845337372, 15058.571405240466, 0.0, 0.0, 0.0, 0.0, 0.0, 0.0, 0.0, 0.0, 0.0, 192.0, 0.0, 0.0, 0.0, 0.0, 0.0, 0.0, 0.0, 0.0, 0.0, 1.677707658292758E9, 0.0, 2023-03-01 13:54:18.292
186.0, 11047.081476102052, 15054.950422638705, 0.0, 0.0, 0.0, 0.0, 0.0, 0.0, 0.0, 0.0, 0.0, 192.0, 0.0, 0.0, 0.0, 0.0, 0.0, 0.0, 0.0, 0.0, 0.0, 1.677707658292777E9, 0.0, 2023-03-01 13:54:18.292
187.0, 11044.555728978603, 15055.17394008326, 0.0, 0.0, 0.0, 0.0, 0.0, 0.0, 0.0, 0.0, 0.0, 192.0, 0.0, 0.0, 0.0, 0.0, 0.0, 0.0, 0.0, 0.0, 0.0, 1.677707658292784E9, 0.0, 2023-03-01 13:54:18.292
188.0, 11045.18157782335, 15052.916413893274, 0.0, 0.0, 0.0, 0.0, 0.0, 0.0, 0.0, 0.0, 0.0, 192.0, 0.0, 0.0, 0.0, 0.0, 0.0, 0.0, 0.0, 0.0, 0.0, 1.677707658292791E9, 0.0, 2023-03-01 13:54:18.292
189.0, 11050.94832789282, 15058.07966686245, 0.0, 0.0, 0.0, 0.0, 0.0, 0.0, 0.0, 0.0, 0.0, 192.0, 0.0, 0.0, 0.0, 0.0, 0.0, 0.0, 0.0, 0.0, 0.0, 1.677707658292798E9, 0.0, 2023-03-01 13:54:18.292
0.0, 0.0, 0.0, 0.0, 0.0, 0.0, 0.0, 0.0, 0.0, -0.5660000000000001, -0.686, 0.47800000000000004, 192.0, 238.0, 80.0, 234.0, 144.0, 14.0, 240.0, 0.0, 0.0, 0.0, 1.677707658399153E9, 0.0, 2023-03-01 13:54:18.399
1.0, 10509.678484163105, 14303.440070562372, 0.0, 0.0, 0.0, 0.0, 0.0, 0.0, -0.5660000000000001, -0.686, 0.47800000000000004, 192.0, 0.0, 0.0, 0.0, 0.0, 0.0, 0.0, 0.0, 0.0, 0.0, 1.677707658413169E9, 0.0, 2023-03-01 13:54:18.413
2.0, 10503.822327115813, 14298.612093760026, 0.0, 0.0, 0.0, 0.0, 0.0, 0.0, -0.5660000000000001, -0.686, 0.47800000000000004, 192.0, 0.0, 0.0, 0.0, 0.0, 0.0, 0.0, 0.0, 0.0, 0.0, 1.677707658419264E9, 0.0, 2023-03-01 13:54:18.419
3.0, 10500.648379403161, 14300.534343783182, 0.0, 0.0, 0.0, 0.0, 0.0, 0.0, -0.5660000000000001, -0.686, 0.47800000000000004, 192.0, 0.0, 0.0, 0.0, 0.0, 0.0, 0.0, 0.0, 0.0, 0.0, 1.67770765841928E9, 0.0, 2023-03-01 13:54:18.419
4.0, 10514.349998754264, 14312.246657877764, 0.0, 0.0, 0.0, 0.0, 0.0, 0.0, -0.5660000000000001, -0.686, 0.47800000000000004, 192.0, 0.0, 0.0, 0.0, 0.0, 0.0, 0.0, 0.0, 0.0, 0.0, 1.677707658427213E9, 0.0, 2023-03-01 13:54:18.427
5.0, 10526.352885526763, 14314.9288672124, 0.0, 0.0, 0.0, 0.0, 0.0, 0.0, -0.5660000000000001, -0.686, 0.47800000000000004, 192.0, 0.0, 0.0, 0.0, 0.0, 0.0, 0.0, 0.0, 0.0, 0.0, 1.677707658427229E9, 0.0, 2023-03-01 13:54:18.427
6.0, 10531.024400117922, 14319.108643425543, 0.0, 0.0, 0.0, 0.0, 0.0, 0.0, -0.5660000000000001, -0.686, 0.47800000000000004, 192.0, 0.0, 0.0, 0.0, 0.0, 0.0, 0.0, 0.0, 0.0, 0.0, 1.677707658435252E9, 0.0, 2023-03-01 13:54:18.435
7.0, 10507.331550995297, 14305.07174790761, 0.0, 0.0, 0.0, 0.0, 0.0, 0.0, -0.5660000000000001, -0.686, 0.47800000000000004, 192.0, 0.0, 0.0, 0.0, 0.0, 0.0, 0.0, 0.0, 0.0, 0.0, 1.677707658435267E9, 0.0, 2023-03-01 13:54:18.435
8.0, 10484.532771650884, 14288.039718632666, 0.0, 0.0, 0.0, 0.0, 0.0, 0.0, -0.526, -0.7020000000000001, 0.496, 192.0, 239.0, 144.0, 234.0, 16.0, 15.0, 128.0, 0.0, 0.0, 0.0, 1.677707658441791E9, 0.0, 2023-03-01 13:54:18.441
9.0, 10496.133327023188, 14299.148535626953, 0.0, 0.0, 0.0, 0.0, 0.0, 0.0, -0.526, -0.7020000000000001, 0.496, 192.0, 0.0, 0.0, 0.0, 0.0, 0.0, 0.0, 0.0, 0.0, 0.0, 1.6777076584418E9, 0.0, 2023-03-01 13:54:18.441
10.0, 10493.272303732909, 14295.013462902722, 0.0, 0.0, 0.0, 0.0, 0.0, 0.0, -0.526, -0.7020000000000001, 0.496, 192.0, 0.0, 0.0, 0.0, 0.0, 0.0, 0.0, 0.0, 0.0, 0.0, 1.6777076584506E9, 0.0, 2023-03-01 13:54:18.450
11.0, 10485.158620495633, 14287.995015143755, 0.0, 0.0, 0.0, 0.0, 0.0, 0.0, -0.526, -0.7020000000000001, 0.496, 192.0, 0.0, 0.0, 0.0, 0.0, 0.0, 0.0, 0.0, 0.0, 0.0, 1.677707658450622E9, 0.0, 2023-03-01 13:54:18.450
12.0, 10495.529829922894, 14297.986244915277, 0.0, 0.0, 0.0, 0.0, 0.0, 0.0, -0.526, -0.7020000000000001, 0.496, 192.0, 0.0, 0.0, 0.0, 0.0, 0.0, 0.0, 0.0, 0.0, 0.0, 1.677707658457128E9, 0.0, 2023-03-01 13:54:18.457
13.0, 10489.137231008677, 14292.353605312539, 0.0, 0.0, 0.0, 0.0, 0.0, 0.0, -0.526, -0.7020000000000001, 0.496, 192.0, 0.0, 0.0, 0.0, 0.0, 0.0, 0.0, 0.0, 0.0, 0.0, 1.677707658457186E9, 0.0, 2023-03-01 13:54:18.457
14.0, 10485.40448968464, 14290.833686689579, 0.0, 0.0, 0.0, 0.0, 0.0, 0.0, -0.526, -0.7020000000000001, 0.496, 192.0, 0.0, 0.0, 0.0, 0.0, 0.0, 0.0, 0.0, 0.0, 0.0, 1.677707658467906E9, 0.0, 2023-03-01 13:54:18.467
15.0, 10492.802917099347, 14294.521724524704, 0.0, 0.0, 0.0, 0.0, 0.0, 0.0, -0.526, -0.7020000000000001, 0.496, 192.0, 0.0, 0.0, 0.0, 0.0, 0.0, 0.0, 0.0, 0.0, 0.0, 1.677707658467927E9, 0.0, 2023-03-01 13:54:18.467
16.0, 10491.685329876582, 14291.34777681205, 0.0, 0.0, 0.0, 0.0, 0.0, 0.0, -0.526, -0.7020000000000001, 0.496, 192.0, 0.0, 0.0, 0.0, 0.0, 0.0, 0.0, 0.0, 0.0, 0.0, 1.677707658472728E9, 0.0, 2023-03-01 13:54:18.472
17.0, 10501.251876503453, 14296.198105358853, 0.0, 0.0, 0.0, 0.0, 0.0, 0.0, -0.526, -0.7020000000000001, 0.496, 192.0, 0.0, 0.0, 0.0, 0.0, 0.0, 0.0, 0.0, 0.0, 0.0, 1.67770765847936E9, 0.0, 2023-03-01 13:54:18.479
18.0, 10499.731957880493, 14295.058166391633, 0.0, 0.0, 0.0, 0.0, 0.0, 0.0, -0.5, -0.72, 0.502, 192.0, 240.0, 96.0, 233.0, 128.0, 15.0, 176.0, 0.0, 0.0, 0.0, 1.677707658479371E9, 0.0, 2023-03-01 13:54:18.479
19.0, 10496.714472379026, 14294.007634402233, 0.0, 0.0, 0.0, 0.0, 0.0, 0.0, -0.5, -0.72, 0.502, 192.0, 0.0, 0.0, 0.0, 0.0, 0.0, 0.0, 0.0, 0.0, 0.0, 1.677707658486792E9, 0.0, 2023-03-01 13:54:18.486
20.0, 10505.476356205507, 14301.607227517037, 0.0, 0.0, 0.0, 0.0, 0.0, 0.0, -0.5, -0.72, 0.502, 192.0, 0.0, 0.0, 0.0, 0.0, 0.0, 0.0, 0.0, 0.0, 0.0, 1.677707658486807E9, 0.0, 2023-03-01 13:54:18.486
21.0, 10510.88547836369, 14302.680111250891, 0.0, 0.0, 0.0, 0.0, 0.0, 0.0, -0.5, -0.72, 0.502, 192.0, 0.0, 0.0, 0.0, 0.0, 0.0, 0.0, 0.0, 0.0, 0.0, 1.677707658494802E9, 0.0, 2023-03-01 13:54:18.494
22.0, 10509.097338807267, 14299.439108304872, 0.0, 0.0, 0.0, 0.0, 0.0, 0.0, -0.5, -0.72, 0.502, 192.0, 0.0, 0.0, 0.0, 0.0, 0.0, 0.0, 0.0, 0.0, 0.0, 1.677707658494818E9, 0.0, 2023-03-01 13:54:18.494
23.0, 10509.924353352113, 14298.276817593196, 0.0, 0.0, 0.0, 0.0, 0.0, 0.0, -0.5, -0.72, 0.502, 192.0, 0.0, 0.0, 0.0, 0.0, 0.0, 0.0, 0.0, 0.0, 0.0, 1.677707658502811E9, 0.0, 2023-03-01 13:54:18.502
24.0, 10512.65126617566, 14300.601399016548, 0.0, 0.0, 0.0, 0.0, 0.0, 0.0, -0.5, -0.72, 0.502, 192.0, 0.0, 0.0, 0.0, 0.0, 0.0, 0.0, 0.0, 0.0, 0.0, 1.677707658502838E9, 0.0, 2023-03-01 13:54:18.502
25.0, 10516.562821455338, 14302.903628695445, 0.0, 0.0, 0.0, 0.0, 0.0, 0.0, -0.5, -0.72, 0.502, 192.0, 0.0, 0.0, 0.0, 0.0, 0.0, 0.0, 0.0, 0.0, 0.0, 1.677707658509443E9, 0.0, 2023-03-01 13:54:18.509
26.0, 10509.41026322964, 14298.477983293295, 0.0, 0.0, 0.0, 0.0, 0.0, 0.0, -0.5, -0.72, 0.502, 192.0, 0.0, 0.0, 0.0, 0.0, 0.0, 0.0, 0.0, 0.0, 0.0, 1.67770765850947E9, 0.0, 2023-03-01 13:54:18.509
27.0, 10503.062367804334, 14296.131050125487, 0.0, 0.0, 0.0, 0.0, 0.0, 0.0, -0.5, -0.72, 0.502, 192.0, 0.0, 0.0, 0.0, 0.0, 0.0, 0.0, 0.0, 0.0, 0.0, 1.677707658517464E9, 0.0, 2023-03-01 13:54:18.517
28.0, 10504.60463817175, 14294.477021035795, 0.0, 0.0, 0.0, 0.0, 0.0, 0.0, -0.498, -0.734, 0.51, 192.0, 240.0, 112.0, 233.0, 16.0, 15.0, 240.0, 0.0, 0.0, 0.0, 1.677707658517481E9, 0.0, 2023-03-01 13:54:18.517
29.0, 10505.65517016115, 14295.415794302917, 0.0, 0.0, 0.0, 0.0, 0.0, 0.0, -0.498, -0.734, 0.51, 192.0, 0.0, 0.0, 0.0, 0.0, 0.0, 0.0, 0.0, 0.0, 0.0, 1.67770765852545E9, 0.0, 2023-03-01 13:54:18.525
30.0, 10504.22465851601, 14291.772459956701, 0.0, 0.0, 0.0, 0.0, 0.0, 0.0, -0.498, -0.734, 0.51, 192.0, 0.0, 0.0, 0.0, 0.0, 0.0, 0.0, 0.0, 0.0, 0.0, 1.677707658525502E9, 0.0, 2023-03-01 13:54:18.525
31.0, 10502.391815470673, 14291.504239023237, 0.0, 0.0, 0.0, 0.0, 0.0, 0.0, -0.498, -0.734, 0.51, 192.0, 0.0, 0.0, 0.0, 0.0, 0.0, 0.0, 0.0, 0.0, 0.0, 1.677707658532503E9, 0.0, 2023-03-01 13:54:18.532
32.0, 10502.727091637504, 14293.404137301939, 0.0, 0.0, 0.0, 0.0, 0.0, 0.0, -0.498, -0.734, 0.51, 192.0, 0.0, 0.0, 0.0, 0.0, 0.0, 0.0, 0.0, 0.0, 0.0, 1.677707658539067E9, 0.0, 2023-03-01 13:54:18.539
33.0, 10510.706664408048, 14297.0251199037, 0.0, 0.0, 0.0, 0.0, 0.0, 0.0, -0.498, -0.734, 0.51, 192.0, 0.0, 0.0, 0.0, 0.0, 0.0, 0.0, 0.0, 0.0, 0.0, 1.677707658539076E9, 0.0, 2023-03-01 13:54:18.539
34.0, 10511.421920230618, 14299.282646093685, 0.0, 0.0, 0.0, 0.0, 0.0, 0.0, -0.498, -0.734, 0.51, 192.0, 0.0, 0.0, 0.0, 0.0, 0.0, 0.0, 0.0, 0.0, 0.0, 1.677707658547126E9, 0.0, 2023-03-01 13:54:18.547
35.0, 10506.057501561345, 14298.813259460123, 0.0, 0.0, 0.0, 0.0, 0.0, 0.0, -0.498, -0.734, 0.51, 192.0, 0.0, 0.0, 0.0, 0.0, 0.0, 0.0, 0.0, 0.0, 0.0, 1.677707658547145E9, 0.0, 2023-03-01 13:54:18.547
36.0, 10507.040978317378, 14298.701500737847, 0.0, 0.0, 0.0, 0.0, 0.0, 0.0, -0.498, -0.734, 0.51, 192.0, 0.0, 0.0, 0.0, 0.0, 0.0, 0.0, 0.0, 0.0, 0.0, 1.677707658554929E9, 0.0, 2023-03-01 13:54:18.554
37.0, 10509.857298118746, 14302.098965895053, 0.0, 0.0, 0.0, 0.0, 0.0, 0.0, -0.498, -0.734, 0.51, 192.0, 0.0, 0.0, 0.0, 0.0, 0.0, 0.0, 0.0, 0.0, 0.0, 1.677707658554947E9, 0.0, 2023-03-01 13:54:18.554
38.0, 10512.047769075367, 14302.50129729525, 0.0, 0.0, 0.0, 0.0, 0.0, 0.0, -0.49, -0.736, 0.508, 192.0, 240.0, 176.0, 233.0, 0.0, 15.0, 224.0, 0.0, 0.0, 0.0, 1.677707658562314E9, 0.0, 2023-03-01 13:54:18.562
39.0, 10508.22562077351, 14295.996939658755, 0.0, 0.0, 0.0, 0.0, 0.0, 0.0, -0.49, -0.736, 0.508, 192.0, 0.0, 0.0, 0.0, 0.0, 0.0, 0.0, 0.0, 0.0, 0.0, 1.677707658562332E9, 0.0, 2023-03-01 13:54:18.562
40.0, 10504.783452127393, 14294.700538480347, 0.0, 0.0, 0.0, 0.0, 0.0, 0.0, -0.49, -0.736, 0.508, 192.0, 0.0, 0.0, 0.0, 0.0, 0.0, 0.0, 0.0, 0.0, 0.0, 1.677707658569716E9, 0.0, 2023-03-01 13:54:18.569
41.0, 10508.739710895981, 14298.388576315472, 0.0, 0.0, 0.0, 0.0, 0.0, 0.0, -0.49, -0.736, 0.508, 192.0, 0.0, 0.0, 0.0, 0.0, 0.0, 0.0, 0.0, 0.0, 0.0, 1.677707658569728E9, 0.0, 2023-03-01 13:54:18.569
42.0, 10514.506460965451, 14298.388576315472, 0.0, 0.0, 0.0, 0.0, 0.0, 0.0, -0.49, -0.736, 0.508, 192.0, 0.0, 0.0, 0.0, 0.0, 0.0, 0.0, 0.0, 0.0, 0.0, 1.677707658577662E9, 0.0, 2023-03-01 13:54:18.577
43.0, 10512.874783620213, 14295.929884425388, 0.0, 0.0, 0.0, 0.0, 0.0, 0.0, -0.49, -0.736, 0.508, 192.0, 0.0, 0.0, 0.0, 0.0, 0.0, 0.0, 0.0, 0.0, 0.0, 1.677707658577675E9, 0.0, 2023-03-01 13:54:18.577
44.0, 10504.448175960562, 14294.454669291339, 0.0, 0.0, 0.0, 0.0, 0.0, 0.0, -0.49, -0.736, 0.508, 192.0, 0.0, 0.0, 0.0, 0.0, 0.0, 0.0, 0.0, 0.0, 0.0, 1.677707658585707E9, 0.0, 2023-03-01 13:54:18.585
45.0, 10509.32085625182, 14296.801602459145, 0.0, 0.0, 0.0, 0.0, 0.0, 0.0, -0.49, -0.736, 0.508, 192.0, 0.0, 0.0, 0.0, 0.0, 0.0, 0.0, 0.0, 0.0, 0.0, 1.677707658585716E9, 0.0, 2023-03-01 13:54:18.585
46.0, 10518.306257522852, 14302.054262406144, 0.0, 0.0, 0.0, 0.0, 0.0, 0.0, -0.49, -0.736, 0.508, 192.0, 0.0, 0.0, 0.0, 0.0, 0.0, 0.0, 0.0, 0.0, 0.0, 1.677707658591935E9, 0.0, 2023-03-01 13:54:18.591
47.0, 10516.138138310687, 14301.16019262793, 0.0, 0.0, 0.0, 0.0, 0.0, 0.0, -0.49, -0.736, 0.508, 192.0, 0.0, 0.0, 0.0, 0.0, 0.0, 0.0, 0.0, 0.0, 0.0, 1.677707658599325E9, 0.0, 2023-03-01 13:54:18.599
48.0, 10510.304333007853, 14301.718986239313, 0.0, 0.0, 0.0, 0.0, 0.0, 0.0, -0.484, -0.74, 0.512, 192.0, 240.0, 224.0, 232.0, 224.0, 16.0, 0.0, 0.0, 0.0, 0.0, 1.677707658599343E9, 0.0, 2023-03-01 13:54:18.599
49.0, 10512.003065586456, 14305.07174790761, 0.0, 0.0, 0.0, 0.0, 0.0, 0.0, -0.484, -0.74, 0.512, 192.0, 0.0, 0.0, 0.0, 0.0, 0.0, 0.0, 0.0, 0.0, 0.0, 1.677707658607349E9, 0.0, 2023-03-01 13:54:18.607
50.0, 10520.004990101455, 14308.8268409761, 0.0, 0.0, 0.0, 0.0, 0.0, 0.0, -0.484, -0.74, 0.512, 192.0, 0.0, 0.0, 0.0, 0.0, 0.0, 0.0, 0.0, 0.0, 0.0, 1.677707658607364E9, 0.0, 2023-03-01 13:54:18.607
51.0, 10519.1332720677, 14309.609152032037, 0.0, 0.0, 0.0, 0.0, 0.0, 0.0, -0.484, -0.74, 0.512, 192.0, 0.0, 0.0, 0.0, 0.0, 0.0, 0.0, 0.0, 0.0, 0.0, 1.677707658614431E9, 0.0, 2023-03-01 13:54:18.614
52.0, 10514.908792365646, 14308.871544465012, 0.0, 0.0, 0.0, 0.0, 0.0, 0.0, -0.484, -0.74, 0.512, 192.0, 0.0, 0.0, 0.0, 0.0, 0.0, 0.0, 0.0, 0.0, 0.0, 1.677707658614444E9, 0.0, 2023-03-01 13:54:18.614
53.0, 10517.792167400381, 14309.83266947659, 0.0, 0.0, 0.0, 0.0, 0.0, 0.0, -0.484, -0.74, 0.512, 192.0, 0.0, 0.0, 0.0, 0.0, 0.0, 0.0, 0.0, 0.0, 0.0, 1.677707658622435E9, 0.0, 2023-03-01 13:54:18.622
54.0, 10524.050655847866, 14311.263181121729, 0.0, 0.0, 0.0, 0.0, 0.0, 0.0, -0.484, -0.74, 0.512, 192.0, 0.0, 0.0, 0.0, 0.0, 0.0, 0.0, 0.0, 0.0, 0.0, 1.677707658622448E9, 0.0, 2023-03-01 13:54:18.622
55.0, 10526.643458204682, 14314.437128834383, 0.0, 0.0, 0.0, 0.0, 0.0, 0.0, -0.484, -0.74, 0.512, 192.0, 0.0, 0.0, 0.0, 0.0, 0.0, 0.0, 0.0, 0.0, 0.0, 1.677707658629949E9, 0.0, 2023-03-01 13:54:18.629
56.0, 10523.290696536385, 14311.173774143908, 0.0, 0.0, 0.0, 0.0, 0.0, 0.0, -0.484, -0.74, 0.512, 192.0, 0.0, 0.0, 0.0, 0.0, 0.0, 0.0, 0.0, 0.0, 0.0, 1.67770765862997E9, 0.0, 2023-03-01 13:54:18.629
57.0, 10523.469510492028, 14310.056186921143, 0.0, 0.0, 0.0, 0.0, 0.0, 0.0, -0.484, -0.74, 0.512, 192.0, 0.0, 0.0, 0.0, 0.0, 0.0, 0.0, 0.0, 0.0, 0.0, 1.677707658638532E9, 0.0, 2023-03-01 13:54:18.638
58.0, 10529.392722772685, 14312.73839625578, 0.0, 0.0, 0.0, 0.0, 0.0, 0.0, -0.482, -0.736, 0.51, 192.0, 240.0, 240.0, 233.0, 0.0, 15.0, 240.0, 0.0, 0.0, 0.0, 1.677707658638554E9, 0.0, 2023-03-01 13:54:18.638
59.0, 10534.17599608612, 14316.851117235556, 0.0, 0.0, 0.0, 0.0, 0.0, 0.0, -0.482, -0.736, 0.51, 192.0, 0.0, 0.0, 0.0, 0.0, 0.0, 0.0, 0.0, 0.0, 0.0, 1.677707658644634E9, 0.0, 2023-03-01 13:54:18.644
60.0, 10529.057446605855, 14312.961913700334, 0.0, 0.0, 0.0, 0.0, 0.0, 0.0, -0.482, -0.736, 0.51, 192.0, 0.0, 0.0, 0.0, 0.0, 0.0, 0.0, 0.0, 0.0, 0.0, 1.677707658644666E9, 0.0, 2023-03-01 13:54:18.644
61.0, 10529.437426261597, 14311.39729158846, 0.0, 0.0, 0.0, 0.0, 0.0, 0.0, -0.482, -0.736, 0.51, 192.0, 0.0, 0.0, 0.0, 0.0, 0.0, 0.0, 0.0, 0.0, 0.0, 1.677707658651688E9, 0.0, 2023-03-01 13:54:18.651
62.0, 10534.42186527513, 14316.985227702287, 0.0, 0.0, 0.0, 0.0, 0.0, 0.0, -0.482, -0.736, 0.51, 192.0, 0.0, 0.0, 0.0, 0.0, 0.0, 0.0, 0.0, 0.0, 0.0, 1.677707658651706E9, 0.0, 2023-03-01 13:54:18.651
63.0, 10536.478225765017, 14316.314675368629, 0.0, 0.0, 0.0, 0.0, 0.0, 0.0, -0.482, -0.736, 0.51, 192.0, 0.0, 0.0, 0.0, 0.0, 0.0, 0.0, 0.0, 0.0, 0.0, 1.677707658659596E9, 0.0, 2023-03-01 13:54:18.659
64.0, 10535.070065864333, 14313.923038711911, 0.0, 0.0, 0.0, 0.0, 0.0, 0.0, -0.482, -0.736, 0.51, 192.0, 0.0, 0.0, 0.0, 0.0, 0.0, 0.0, 0.0, 0.0, 0.0, 1.677707658667691E9, 0.0, 2023-03-01 13:54:18.667
65.0, 10528.23043206101, 14310.88320146599, 0.0, 0.0, 0.0, 0.0, 0.0, 0.0, -0.482, -0.736, 0.51, 192.0, 0.0, 0.0, 0.0, 0.0, 0.0, 0.0, 0.0, 0.0, 0.0, 1.677707658667707E9, 0.0, 2023-03-01 13:54:18.667
66.0, 10529.973868128523, 14311.620809033015, 0.0, 0.0, 0.0, 0.0, 0.0, 0.0, -0.482, -0.736, 0.51, 192.0, 0.0, 0.0, 0.0, 0.0, 0.0, 0.0, 0.0, 0.0, 0.0, 1.677707658674292E9, 0.0, 2023-03-01 13:54:18.674
67.0, 10532.119635596233, 14313.11837591152, 0.0, 0.0, 0.0, 0.0, 0.0, 0.0, -0.482, -0.736, 0.51, 192.0, 0.0, 0.0, 0.0, 0.0, 0.0, 0.0, 0.0, 0.0, 0.0, 1.677707658674304E9, 0.0, 2023-03-01 13:54:18.674
68.0, 10528.900984394668, 14313.565410800626, 0.0, 0.0, 0.0, 0.0, 0.0, 0.0, -0.482, -0.736, 0.51, 192.0, 0.0, 0.0, 0.0, 0.0, 0.0, 0.0, 0.0, 0.0, 0.0, 1.677707658682435E9, 0.0, 2023-03-01 13:54:18.682
69.0, 10531.56084198485, 14312.872506722511, 0.0, 0.0, 0.0, 0.0, 0.0, 0.0, -0.486, -0.736, 0.51, 192.0, 240.0, 208.0, 233.0, 0.0, 15.0, 240.0, 0.0, 0.0, 0.0, 1.677707658682453E9, 0.0, 2023-03-01 13:54:18.682
70.0, 10539.65217347767, 14319.868602737022, 0.0, 0.0, 0.0, 0.0, 0.0, 0.0, -0.486, -0.736, 0.51, 192.0, 0.0, 0.0, 0.0, 0.0, 0.0, 0.0, 0.0, 0.0, 0.0, 1.677707658690258E9, 0.0, 2023-03-01 13:54:18.690
71.0, 10540.434484533607, 14322.863736494033, 0.0, 0.0, 0.0, 0.0, 0.0, 0.0, -0.486, -0.736, 0.51, 192.0, 0.0, 0.0, 0.0, 0.0, 0.0, 0.0, 0.0, 0.0, 0.0, 1.677707658690274E9, 0.0, 2023-03-01 13:54:18.690
72.0, 10545.575385758328, 14338.711123312847, 0.0, 0.0, 0.0, 0.0, 0.0, 0.0, -0.486, -0.736, 0.51, 192.0, 0.0, 0.0, 0.0, 0.0, 0.0, 0.0, 0.0, 0.0, 0.0, 1.677707658698356E9, 0.0, 2023-03-01 13:54:18.698
73.0, 10566.921301713146, 14360.504074156772, 0.0, 0.0, 0.0, 0.0, 0.0, 0.0, -0.486, -0.736, 0.51, 192.0, 0.0, 0.0, 0.0, 0.0, 0.0, 0.0, 0.0, 0.0, 0.0, 1.677707658698374E9, 0.0, 2023-03-01 13:54:18.698
74.0, 10563.747354000492, 14338.018219234733, 0.0, 0.0, 0.0, 0.0, 0.0, 0.0, -0.486, -0.736, 0.51, 192.0, 0.0, 0.0, 0.0, 0.0, 0.0, 0.0, 0.0, 0.0, 0.0, 1.677707658704882E9, 0.0, 2023-03-01 13:54:18.704
75.0, 10539.473359522028, 14309.631503776493, 0.0, 0.0, 0.0, 0.0, 0.0, 0.0, -0.486, -0.736, 0.51, 192.0, 0.0, 0.0, 0.0, 0.0, 0.0, 0.0, 0.0, 0.0, 0.0, 1.677707658704893E9, 0.0, 2023-03-01 13:54:18.704
76.0, 10530.711475695549, 14302.277779850696, 0.0, 0.0, 0.0, 0.0, 0.0, 0.0, -0.486, -0.736, 0.51, 192.0, 0.0, 0.0, 0.0, 0.0, 0.0, 0.0, 0.0, 0.0, 0.0, 1.67770765871286E9, 0.0, 2023-03-01 13:54:18.712
77.0, 10537.819330432336, 14305.652893263448, 0.0, 0.0, 0.0, 0.0, 0.0, 0.0, -0.486, -0.736, 0.51, 192.0, 0.0, 0.0, 0.0, 0.0, 0.0, 0.0, 0.0, 0.0, 0.0, 1.677707658712876E9, 0.0, 2023-03-01 13:54:18.712
78.0, 10533.37133328573, 14299.617922260515, 0.0, 0.0, 0.0, 0.0, 0.0, 0.0, -0.486, -0.736, 0.51, 192.0, 0.0, 0.0, 0.0, 0.0, 0.0, 0.0, 0.0, 0.0, 0.0, 1.677707658719863E9, 0.0, 2023-03-01 13:54:18.719
79.0, 10541.663830478648, 14299.953198427344, 0.0, 0.0, 0.0, 0.0, 0.0, 0.0, -0.49, -0.744, 0.508, 192.0, 240.0, 176.0, 232.0, 192.0, 15.0, 224.0, 0.0, 0.0, 0.0, 1.677707658727046E9, 0.0, 2023-03-01 13:54:18.727
80.0, 10538.355772299263, 14290.498410522749, 0.0, 0.0, 0.0, 0.0, 0.0, 0.0, -0.49, -0.744, 0.508, 192.0, 0.0, 0.0, 0.0, 0.0, 0.0, 0.0, 0.0, 0.0, 0.0, 1.677707658727067E9, 0.0, 2023-03-01 13:54:18.727
81.0, 10537.260536820953, 14289.581989000082, 0.0, 0.0, 0.0, 0.0, 0.0, 0.0, -0.49, -0.744, 0.508, 192.0, 0.0, 0.0, 0.0, 0.0, 0.0, 0.0, 0.0, 0.0, 0.0, 1.677707658734576E9, 0.0, 2023-03-01 13:54:18.734
82.0, 10535.986487387001, 14284.195218586352, 0.0, 0.0, 0.0, 0.0, 0.0, 0.0, -0.49, -0.744, 0.508, 192.0, 0.0, 0.0, 0.0, 0.0, 0.0, 0.0, 0.0, 0.0, 0.0, 1.677707658734594E9, 0.0, 2023-03-01 13:54:18.734
83.0, 10542.736714212504, 14287.34681455455, 0.0, 0.0, 0.0, 0.0, 0.0, 0.0, -0.49, -0.744, 0.508, 192.0, 0.0, 0.0, 0.0, 0.0, 0.0, 0.0, 0.0, 0.0, 0.0, 1.677707658742548E9, 0.0, 2023-03-01 13:54:18.742
84.0, 10544.770722957937, 14291.9736256568, 0.0, 0.0, 0.0, 0.0, 0.0, 0.0, -0.49, -0.744, 0.508, 192.0, 0.0, 0.0, 0.0, 0.0, 0.0, 0.0, 0.0, 0.0, 0.0, 1.677707658742565E9, 0.0, 2023-03-01 13:54:18.742
85.0, 10539.451007777574, 14290.118430867009, 0.0, 0.0, 0.0, 0.0, 0.0, 0.0, -0.49, -0.744, 0.508, 192.0, 0.0, 0.0, 0.0, 0.0, 0.0, 0.0, 0.0, 0.0, 0.0, 1.677707658750471E9, 0.0, 2023-03-01 13:54:18.750
86.0, 10536.589984487295, 14288.643215732958, 0.0, 0.0, 0.0, 0.0, 0.0, 0.0, -0.49, -0.744, 0.508, 192.0, 0.0, 0.0, 0.0, 0.0, 0.0, 0.0, 0.0, 0.0, 0.0, 1.677707658750487E9, 0.0, 2023-03-01 13:54:18.750
87.0, 10549.196368360088, 14296.131050125487, 0.0, 0.0, 0.0, 0.0, 0.0, 0.0, -0.49, -0.744, 0.508, 192.0, 0.0, 0.0, 0.0, 0.0, 0.0, 0.0, 0.0, 0.0, 0.0, 1.67770765875724E9, 0.0, 2023-03-01 13:54:18.757
88.0, 10552.459723050562, 14300.690805994369, 0.0, 0.0, 0.0, 0.0, 0.0, 0.0, -0.49, -0.744, 0.508, 192.0, 0.0, 0.0, 0.0, 0.0, 0.0, 0.0, 0.0, 0.0, 0.0, 1.677707658757253E9, 0.0, 2023-03-01 13:54:18.757
89.0, 10544.569557257839, 14296.198105358853, 0.0, 0.0, 0.0, 0.0, 0.0, 0.0, -0.484, -0.738, 0.512, 192.0, 240.0, 224.0, 232.0, 240.0, 16.0, 0.0, 0.0, 0.0, 0.0, 1.677707658765227E9, 0.0, 2023-03-01 13:54:18.765
90.0, 10541.32855431182, 14293.135916368476, 0.0, 0.0, 0.0, 0.0, 0.0, 0.0, -0.484, -0.738, 0.512, 192.0, 0.0, 0.0, 0.0, 0.0, 0.0, 0.0, 0.0, 0.0, 0.0, 1.677707658765242E9, 0.0, 2023-03-01 13:54:18.765
91.0, 10549.75516197147, 14296.041643147666, 0.0, 0.0, 0.0, 0.0, 0.0, 0.0, -0.484, -0.738, 0.512, 192.0, 0.0, 0.0, 0.0, 0.0, 0.0, 0.0, 0.0, 0.0, 0.0, 1.677707658773089E9, 0.0, 2023-03-01 13:54:18.773
92.0, 10560.931034199124, 14302.233076361785, 0.0, 0.0, 0.0, 0.0, 0.0, 0.0, -0.484, -0.738, 0.512, 192.0, 0.0, 0.0, 0.0, 0.0, 0.0, 0.0, 0.0, 0.0, 0.0, 1.677707658773109E9, 0.0, 2023-03-01 13:54:18.773
93.0, 10555.097228896288, 14297.405099559439, 0.0, 0.0, 0.0, 0.0, 0.0, 0.0, -0.484, -0.738, 0.512, 192.0, 0.0, 0.0, 0.0, 0.0, 0.0, 0.0, 0.0, 0.0, 0.0, 1.677707658780263E9, 0.0, 2023-03-01 13:54:18.780
94.0, 10545.79890320288, 14291.526590767693, 0.0, 0.0, 0.0, 0.0, 0.0, 0.0, -0.484, -0.738, 0.512, 192.0, 0.0, 0.0, 0.0, 0.0, 0.0, 0.0, 0.0, 0.0, 0.0, 1.677707658786829E9, 0.0, 2023-03-01 13:54:18.786
95.0, 10553.51025503996, 14295.795773958656, 0.0, 0.0, 0.0, 0.0, 0.0, 0.0, -0.484, -0.738, 0.512, 192.0, 0.0, 0.0, 0.0, 0.0, 0.0, 0.0, 0.0, 0.0, 0.0, 1.677707658786847E9, 0.0, 2023-03-01 13:54:18.786
96.0, 10559.254653364975, 14301.517820539215, 0.0, 0.0, 0.0, 0.0, 0.0, 0.0, -0.484, -0.738, 0.512, 192.0, 0.0, 0.0, 0.0, 0.0, 0.0, 0.0, 0.0, 0.0, 0.0, 1.677707658794909E9, 0.0, 2023-03-01 13:54:18.794
97.0, 10554.76195272946, 14301.003730416744, 0.0, 0.0, 0.0, 0.0, 0.0, 0.0, -0.484, -0.738, 0.512, 192.0, 0.0, 0.0, 0.0, 0.0, 0.0, 0.0, 0.0, 0.0, 0.0, 1.677707658794929E9, 0.0, 2023-03-01 13:54:18.794
98.0, 10550.962156172056, 14298.656797248936, 0.0, 0.0, 0.0, 0.0, 0.0, 0.0, -0.484, -0.738, 0.512, 192.0, 0.0, 0.0, 0.0, 0.0, 0.0, 0.0, 0.0, 0.0, 0.0, 1.677707658802993E9, 0.0, 2023-03-01 13:54:18.802
99.0, 10553.51025503996, 14301.853096706045, 0.0, 0.0, 0.0, 0.0, 0.0, 0.0, -0.488, -0.73, 0.51, 192.0, 240.0, 192.0, 233.0, 48.0, 15.0, 240.0, 0.0, 0.0, 0.0, 1.677707658803008E9, 0.0, 2023-03-01 13:54:18.803
100.0, 10556.259519607964, 14306.59166653057, 0.0, 0.0, 0.0, 0.0, 0.0, 0.0, -0.488, -0.73, 0.51, 192.0, 0.0, 0.0, 0.0, 0.0, 0.0, 0.0, 0.0, 0.0, 0.0, 1.67770765880948E9, 0.0, 2023-03-01 13:54:18.809
101.0, 10552.191502117099, 14300.444936805361, 0.0, 0.0, 0.0, 0.0, 0.0, 0.0, -0.488, -0.73, 0.51, 192.0, 0.0, 0.0, 0.0, 0.0, 0.0, 0.0, 0.0, 0.0, 0.0, 1.677707658809489E9, 0.0, 2023-03-01 13:54:18.809
102.0, 10549.889272438202, 14300.623750761004, 0.0, 0.0, 0.0, 0.0, 0.0, 0.0, -0.488, -0.73, 0.51, 192.0, 0.0, 0.0, 0.0, 0.0, 0.0, 0.0, 0.0, 0.0, 0.0, 1.677707658817537E9, 0.0, 2023-03-01 13:54:18.817
103.0, 10553.934938184613, 14302.233076361785, 0.0, 0.0, 0.0, 0.0, 0.0, 0.0, -0.488, -0.73, 0.51, 192.0, 0.0, 0.0, 0.0, 0.0, 0.0, 0.0, 0.0, 0.0, 0.0, 1.677707658817559E9, 0.0, 2023-03-01 13:54:18.817
104.0, 10561.288662110408, 14305.183506629886, 0.0, 0.0, 0.0, 0.0, 0.0, 0.0, -0.488, -0.73, 0.51, 192.0, 0.0, 0.0, 0.0, 0.0, 0.0, 0.0, 0.0, 0.0, 0.0, 1.677707658825492E9, 0.0, 2023-03-01 13:54:18.825
105.0, 10556.70655449707, 14304.423547318405, 0.0, 0.0, 0.0, 0.0, 0.0, 0.0, -0.488, -0.73, 0.51, 192.0, 0.0, 0.0, 0.0, 0.0, 0.0, 0.0, 0.0, 0.0, 0.0, 1.677707658825509E9, 0.0, 2023-03-01 13:54:18.825
106.0, 10550.984507916512, 14300.467288549817, 0.0, 0.0, 0.0, 0.0, 0.0, 0.0, -0.488, -0.73, 0.51, 192.0, 0.0, 0.0, 0.0, 0.0, 0.0, 0.0, 0.0, 0.0, 0.0, 1.677707658832582E9, 0.0, 2023-03-01 13:54:18.832
107.0, 10547.430580548118, 14299.506163538237, 0.0, 0.0, 0.0, 0.0, 0.0, 0.0, -0.488, -0.73, 0.51, 192.0, 0.0, 0.0, 0.0, 0.0, 0.0, 0.0, 0.0, 0.0, 0.0, 1.677707658832598E9, 0.0, 2023-03-01 13:54:18.832
108.0, 10556.058353907867, 14306.077576408099, 0.0, 0.0, 0.0, 0.0, 0.0, 0.0, -0.488, -0.73, 0.51, 192.0, 0.0, 0.0, 0.0, 0.0, 0.0, 0.0, 0.0, 0.0, 0.0, 1.677707658839248E9, 0.0, 2023-03-01 13:54:18.839
109.0, 10555.65602250767, 14306.658721763937, 0.0, 0.0, 0.0, 0.0, 0.0, 0.0, -0.492, -0.73, 0.51, 192.0, 240.0, 160.0, 233.0, 48.0, 15.0, 240.0, 0.0, 0.0, 0.0, 1.677707658847091E9, 0.0, 2023-03-01 13:54:18.847
110.0, 10549.732810227015, 14302.054262406144, 0.0, 0.0, 0.0, 0.0, 0.0, 0.0, -0.492, -0.73, 0.51, 192.0, 0.0, 0.0, 0.0, 0.0, 0.0, 0.0, 0.0, 0.0, 0.0, 1.677707658847106E9, 0.0, 2023-03-01 13:54:18.847
111.0, 10546.737676470004, 14303.39536707346, 0.0, 0.0, 0.0, 0.0, 0.0, 0.0, -0.492, -0.73, 0.51, 192.0, 0.0, 0.0, 0.0, 0.0, 0.0, 0.0, 0.0, 0.0, 0.0, 1.677707658855238E9, 0.0, 2023-03-01 13:54:18.855
112.0, 10555.968946930045, 14305.518782796715, 0.0, 0.0, 0.0, 0.0, 0.0, 0.0, -0.492, -0.73, 0.51, 192.0, 0.0, 0.0, 0.0, 0.0, 0.0, 0.0, 0.0, 0.0, 0.0, 1.677707658855249E9, 0.0, 2023-03-01 13:54:18.855
113.0, 10562.719173755548, 14307.083404908588, 0.0, 0.0, 0.0, 0.0, 0.0, 0.0, -0.492, -0.73, 0.51, 192.0, 0.0, 0.0, 0.0, 0.0, 0.0, 0.0, 0.0, 0.0, 0.0, 1.677707658862156E9, 0.0, 2023-03-01 13:54:18.862
114.0, 10558.47234230904, 14304.803526974145, 0.0, 0.0, 0.0, 0.0, 0.0, 0.0, -0.492, -0.73, 0.51, 192.0, 0.0, 0.0, 0.0, 0.0, 0.0, 0.0, 0.0, 0.0, 0.0, 1.677707658862177E9, 0.0, 2023-03-01 13:54:18.862
115.0, 10550.492769538496, 14300.534343783182, 0.0, 0.0, 0.0, 0.0, 0.0, 0.0, -0.492, -0.73, 0.51, 192.0, 0.0, 0.0, 0.0, 0.0, 0.0, 0.0, 0.0, 0.0, 0.0, 1.67770765886964E9, 0.0, 2023-03-01 13:54:18.869
116.0, 10556.147760885688, 14301.137840883475, 0.0, 0.0, 0.0, 0.0, 0.0, 0.0, -0.492, -0.73, 0.51, 192.0, 0.0, 0.0, 0.0, 0.0, 0.0, 0.0, 0.0, 0.0, 0.0, 1.677707658869684E9, 0.0, 2023-03-01 13:54:18.869
117.0, 10563.076801666833, 14306.21168687483, 0.0, 0.0, 0.0, 0.0, 0.0, 0.0, -0.492, -0.73, 0.51, 192.0, 0.0, 0.0, 0.0, 0.0, 0.0, 0.0, 0.0, 0.0, 0.0, 1.677707658877681E9, 0.0, 2023-03-01 13:54:18.877
118.0, 10557.354755086275, 14302.054262406144, 0.0, 0.0, 0.0, 0.0, 0.0, 0.0, -0.492, -0.73, 0.51, 192.0, 0.0, 0.0, 0.0, 0.0, 0.0, 0.0, 0.0, 0.0, 0.0, 1.677707658877703E9, 0.0, 2023-03-01 13:54:18.877
119.0, 10553.309089339864, 14301.316654839118, 0.0, 0.0, 0.0, 0.0, 0.0, 0.0, -0.49, -0.732, 0.506, 192.0, 240.0, 176.0, 233.0, 32.0, 15.0, 208.0, 0.0, 0.0, 0.0, 1.677707658885697E9, 0.0, 2023-03-01 13:54:18.885
120.0, 10560.863978965757, 14303.037739162177, 0.0, 0.0, 0.0, 0.0, 0.0, 0.0, -0.49, -0.732, 0.506, 192.0, 0.0, 0.0, 0.0, 0.0, 0.0, 0.0, 0.0, 0.0, 0.0, 1.67770765888571E9, 0.0, 2023-03-01 13:54:18.885
121.0, 10568.195351147098, 14305.854058963545, 0.0, 0.0, 0.0, 0.0, 0.0, 0.0, -0.49, -0.732, 0.506, 192.0, 0.0, 0.0, 0.0, 0.0, 0.0, 0.0, 0.0, 0.0, 0.0, 1.677707658892327E9, 0.0, 2023-03-01 13:54:18.892
122.0, 10564.172037145143, 14299.819087960612, 0.0, 0.0, 0.0, 0.0, 0.0, 0.0, -0.49, -0.732, 0.506, 192.0, 0.0, 0.0, 0.0, 0.0, 0.0, 0.0, 0.0, 0.0, 0.0, 1.677707658892338E9, 0.0, 2023-03-01 13:54:18.892
123.0, 10560.95338594358, 14298.790907715667, 0.0, 0.0, 0.0, 0.0, 0.0, 0.0, -0.49, -0.732, 0.506, 192.0, 0.0, 0.0, 0.0, 0.0, 0.0, 0.0, 0.0, 0.0, 0.0, 1.677707658899416E9, 0.0, 2023-03-01 13:54:18.899
124.0, 10571.011670948466, 14312.269009622218, 0.0, 0.0, 0.0, 0.0, 0.0, 0.0, -0.49, -0.732, 0.506, 192.0, 0.0, 0.0, 0.0, 0.0, 0.0, 0.0, 0.0, 0.0, 0.0, 1.677707658899433E9, 0.0, 2023-03-01 13:54:18.899
125.0, 10590.502392113494, 14332.519690098727, 0.0, 0.0, 0.0, 0.0, 0.0, 0.0, -0.49, -0.732, 0.506, 192.0, 0.0, 0.0, 0.0, 0.0, 0.0, 0.0, 0.0, 0.0, 0.0, 1.677707658907356E9, 0.0, 2023-03-01 13:54:18.907
126.0, 10590.9494270026, 14320.628562048503, 0.0, 0.0, 0.0, 0.0, 0.0, 0.0, -0.49, -0.732, 0.506, 192.0, 0.0, 0.0, 0.0, 0.0, 0.0, 0.0, 0.0, 0.0, 0.0, 1.677707658915375E9, 0.0, 2023-03-01 13:54:18.915
127.0, 10548.257595092964, 14273.980471370278, 0.0, 0.0, 0.0, 0.0, 0.0, 0.0, -0.49, -0.732, 0.506, 192.0, 0.0, 0.0, 0.0, 0.0, 0.0, 0.0, 0.0, 0.0, 0.0, 1.677707658915393E9, 0.0, 2023-03-01 13:54:18.915
128.0, 10540.054504877866, 14273.77930567018, 0.0, 0.0, 0.0, 0.0, 0.0, 0.0, -0.49, -0.732, 0.506, 192.0, 0.0, 0.0, 0.0, 0.0, 0.0, 0.0, 0.0, 0.0, 0.0, 1.677707658922009E9, 0.0, 2023-03-01 13:54:18.922
129.0, 10571.570464559849, 14301.048433905655, 0.0, 0.0, 0.0, 0.0, 0.0, 0.0, -0.49, -0.736, 0.508, 192.0, 240.0, 176.0, 233.0, 0.0, 15.0, 224.0, 0.0, 0.0, 0.0, 1.677707658922025E9, 0.0, 2023-03-01 13:54:18.922
130.0, 10570.341118614808, 14299.461460049328, 0.0, 0.0, 0.0, 0.0, 0.0, 0.0, -0.49, -0.736, 0.508, 192.0, 0.0, 0.0, 0.0, 0.0, 0.0, 0.0, 0.0, 0.0, 0.0, 1.677707658929921E9, 0.0, 2023-03-01 13:54:18.929
131.0, 10562.674470266636, 14294.745241969258, 0.0, 0.0, 0.0, 0.0, 0.0, 0.0, -0.49, -0.736, 0.508, 192.0, 0.0, 0.0, 0.0, 0.0, 0.0, 0.0, 0.0, 0.0, 0.0, 1.677707658929934E9, 0.0, 2023-03-01 13:54:18.929
132.0, 10556.192464374599, 14291.459535534328, 0.0, 0.0, 0.0, 0.0, 0.0, 0.0, -0.49, -0.736, 0.508, 192.0, 0.0, 0.0, 0.0, 0.0, 0.0, 0.0, 0.0, 0.0, 0.0, 1.677707658937981E9, 0.0, 2023-03-01 13:54:18.937
133.0, 10560.528702798927, 14294.789945458167, 0.0, 0.0, 0.0, 0.0, 0.0, 0.0, -0.49, -0.736, 0.508, 192.0, 0.0, 0.0, 0.0, 0.0, 0.0, 0.0, 0.0, 0.0, 0.0, 1.677707658938025E9, 0.0, 2023-03-01 13:54:18.938
134.0, 10565.311976112363, 14293.784116957679, 0.0, 0.0, 0.0, 0.0, 0.0, 0.0, -0.49, -0.736, 0.508, 192.0, 0.0, 0.0, 0.0, 0.0, 0.0, 0.0, 0.0, 0.0, 0.0, 1.677707658945167E9, 0.0, 2023-03-01 13:54:18.945
135.0, 10554.784304473915, 14287.927959910388, 0.0, 0.0, 0.0, 0.0, 0.0, 0.0, -0.49, -0.736, 0.508, 192.0, 0.0, 0.0, 0.0, 0.0, 0.0, 0.0, 0.0, 0.0, 0.0, 1.677707658945175E9, 0.0, 2023-03-01 13:54:18.945
136.0, 10558.651156264683, 14292.39830880145, 0.0, 0.0, 0.0, 0.0, 0.0, 0.0, -0.49, -0.736, 0.508, 192.0, 0.0, 0.0, 0.0, 0.0, 0.0, 0.0, 0.0, 0.0, 0.0, 1.677707658952658E9, 0.0, 2023-03-01 13:54:18.952
137.0, 10564.350851100786, 14296.801602459145, 0.0, 0.0, 0.0, 0.0, 0.0, 0.0, -0.49, -0.736, 0.508, 192.0, 0.0, 0.0, 0.0, 0.0, 0.0, 0.0, 0.0, 0.0, 0.0, 1.677707658952675E9, 0.0, 2023-03-01 13:54:18.952
138.0, 10565.714307512559, 14300.266122849718, 0.0, 0.0, 0.0, 0.0, 0.0, 0.0, -0.49, -0.736, 0.508, 192.0, 0.0, 0.0, 0.0, 0.0, 0.0, 0.0, 0.0, 0.0, 0.0, 1.67770765896058E9, 0.0, 2023-03-01 13:54:18.960
139.0, 10564.484961567518, 14299.327349582596, 0.0, 0.0, 0.0, 0.0, 0.0, 0.0, -0.484, -0.73, 0.512, 192.0, 240.0, 224.0, 233.0, 48.0, 16.0, 0.0, 0.0, 0.0, 0.0, 1.677707658960598E9, 0.0, 2023-03-01 13:54:18.960
140.0, 10560.506351054473, 14295.482849536284, 0.0, 0.0, 0.0, 0.0, 0.0, 0.0, -0.484, -0.73, 0.512, 192.0, 0.0, 0.0, 0.0, 0.0, 0.0, 0.0, 0.0, 0.0, 0.0, 1.677707658967672E9, 0.0, 2023-03-01 13:54:18.967
141.0, 10559.880502209724, 14293.11356462402, 0.0, 0.0, 0.0, 0.0, 0.0, 0.0, -0.484, -0.73, 0.512, 192.0, 0.0, 0.0, 0.0, 0.0, 0.0, 0.0, 0.0, 0.0, 0.0, 1.677707658974693E9, 0.0, 2023-03-01 13:54:18.974
142.0, 10567.211874391065, 14295.415794302917, 0.0, 0.0, 0.0, 0.0, 0.0, 0.0, -0.484, -0.73, 0.512, 192.0, 0.0, 0.0, 0.0, 0.0, 0.0, 0.0, 0.0, 0.0, 0.0, 1.677707658974706E9, 0.0, 2023-03-01 13:54:18.974
143.0, 10564.395554589695, 14295.527553025193, 0.0, 0.0, 0.0, 0.0, 0.0, 0.0, -0.484, -0.73, 0.512, 192.0, 0.0, 0.0, 0.0, 0.0, 0.0, 0.0, 0.0, 0.0, 0.0, 1.677707658982407E9, 0.0, 2023-03-01 13:54:18.982
144.0, 10554.314917840353, 14285.20104708684, 0.0, 0.0, 0.0, 0.0, 0.0, 0.0, -0.484, -0.73, 0.512, 192.0, 0.0, 0.0, 0.0, 0.0, 0.0, 0.0, 0.0, 0.0, 0.0, 1.677707658982419E9, 0.0, 2023-03-01 13:54:18.982
145.0, 10549.75516197147, 14280.909512151422, 0.0, 0.0, 0.0, 0.0, 0.0, 0.0, -0.484, -0.73, 0.512, 192.0, 0.0, 0.0, 0.0, 0.0, 0.0, 0.0, 0.0, 0.0, 0.0, 1.677707658990187E9, 0.0, 2023-03-01 13:54:18.990
146.0, 10559.27700510943, 14290.364300056017, 0.0, 0.0, 0.0, 0.0, 0.0, 0.0, -0.484, -0.73, 0.512, 192.0, 0.0, 0.0, 0.0, 0.0, 0.0, 0.0, 0.0, 0.0, 0.0, 1.677707658990197E9, 0.0, 2023-03-01 13:54:18.990
147.0, 10557.466513808551, 14288.933788410877, 0.0, 0.0, 0.0, 0.0, 0.0, 0.0, -0.484, -0.73, 0.512, 192.0, 0.0, 0.0, 0.0, 0.0, 0.0, 0.0, 0.0, 0.0, 0.0, 1.67770765899744E9, 0.0, 2023-03-01 13:54:18.997
148.0, 10552.347964328286, 14285.40221278694, 0.0, 0.0, 0.0, 0.0, 0.0, 0.0, -0.484, -0.73, 0.512, 192.0, 0.0, 0.0, 0.0, 0.0, 0.0, 0.0, 0.0, 0.0, 0.0, 1.677707658997466E9, 0.0, 2023-03-01 13:54:18.997
149.0, 10557.734734742015, 14289.559637255627, 0.0, 0.0, 0.0, 0.0, 0.0, 0.0, -0.484, -0.73, 0.512, 192.0, 0.0, 0.0, 0.0, 0.0, 0.0, 0.0, 0.0, 0.0, 0.0, 1.677707659004864E9, 0.0, 2023-03-01 13:54:19.004
150.0, 10567.457743580073, 14294.387614057972, 0.0, 0.0, 0.0, 0.0, 0.0, 0.0, -0.486, -0.73, 0.514, 192.0, 240.0, 208.0, 233.0, 48.0, 16.0, 16.0, 0.0, 0.0, 0.0, 1.677707659004909E9, 0.0, 2023-03-01 13:54:19.004
151.0, 10559.61228127626, 14287.63738723247, 0.0, 0.0, 0.0, 0.0, 0.0, 0.0, -0.486, -0.73, 0.514, 192.0, 0.0, 0.0, 0.0, 0.0, 0.0, 0.0, 0.0, 0.0, 0.0, 1.677707659012858E9, 0.0, 2023-03-01 13:54:19.012
152.0, 10560.461647565562, 14290.900741922946, 0.0, 0.0, 0.0, 0.0, 0.0, 0.0, -0.486, -0.73, 0.514, 192.0, 0.0, 0.0, 0.0, 0.0, 0.0, 0.0, 0.0, 0.0, 0.0, 1.677707659012875E9, 0.0, 2023-03-01 13:54:19.012
153.0, 10564.194388889598, 14298.098003637553, 0.0, 0.0, 0.0, 0.0, 0.0, 0.0, -0.486, -0.73, 0.514, 192.0, 0.0, 0.0, 0.0, 0.0, 0.0, 0.0, 0.0, 0.0, 0.0, 1.677707659020947E9, 0.0, 2023-03-01 13:54:19.020
154.0, 10564.350851100786, 14297.718023981814, 0.0, 0.0, 0.0, 0.0, 0.0, 0.0, -0.486, -0.73, 0.514, 192.0, 0.0, 0.0, 0.0, 0.0, 0.0, 0.0, 0.0, 0.0, 0.0, 1.677707659020958E9, 0.0, 2023-03-01 13:54:19.020
155.0, 10566.295452868397, 14295.639311747469, 0.0, 0.0, 0.0, 0.0, 0.0, 0.0, -0.486, -0.73, 0.514, 192.0, 0.0, 0.0, 0.0, 0.0, 0.0, 0.0, 0.0, 0.0, 0.0, 1.677707659027107E9, 0.0, 2023-03-01 13:54:19.027
156.0, 10560.595758032294, 14293.515896024215, 0.0, 0.0, 0.0, 0.0, 0.0, 0.0, -0.486, -0.73, 0.514, 192.0, 0.0, 0.0, 0.0, 0.0, 0.0, 0.0, 0.0, 0.0, 0.0, 1.677707659034562E9, 0.0, 2023-03-01 13:54:19.034
157.0, 10552.862054450758, 14286.63155873198, 0.0, 0.0, 0.0, 0.0, 0.0, 0.0, -0.486, -0.73, 0.514, 192.0, 0.0, 0.0, 0.0, 0.0, 0.0, 0.0, 0.0, 0.0, 0.0, 1.677707659034572E9, 0.0, 2023-03-01 13:54:19.034
158.0, 10556.795961474892, 14292.30890182363, 0.0, 0.0, 0.0, 0.0, 0.0, 0.0, -0.486, -0.73, 0.514, 192.0, 0.0, 0.0, 0.0, 0.0, 0.0, 0.0, 0.0, 0.0, 0.0, 1.677707659042503E9, 0.0, 2023-03-01 13:54:19.042
159.0, 10562.741525500003, 14292.890047179468, 0.0, 0.0, 0.0, 0.0, 0.0, 0.0, -0.486, -0.73, 0.514, 192.0, 0.0, 0.0, 0.0, 0.0, 0.0, 0.0, 0.0, 0.0, 0.0, 1.677707659042524E9, 0.0, 2023-03-01 13:54:19.042
160.0, 10563.456781322573, 14293.895875679957, 0.0, 0.0, 0.0, 0.0, 0.0, 0.0, -0.492, -0.734, 0.51, 192.0, 240.0, 160.0, 233.0, 16.0, 15.0, 240.0, 0.0, 0.0, 0.0, 1.677707659050584E9, 0.0, 2023-03-01 13:54:19.050
161.0, 10563.412077833662, 14294.20880010233, 0.0, 0.0, 0.0, 0.0, 0.0, 0.0, -0.492, -0.734, 0.51, 192.0, 0.0, 0.0, 0.0, 0.0, 0.0, 0.0, 0.0, 0.0, 0.0, 1.6777076590506E9, 0.0, 2023-03-01 13:54:19.050
162.0, 10575.70553728408, 14302.702462995347, 0.0, 0.0, 0.0, 0.0, 0.0, 0.0, -0.492, -0.734, 0.51, 192.0, 0.0, 0.0, 0.0, 0.0, 0.0, 0.0, 0.0, 0.0, 0.0, 1.677707659057134E9, 0.0, 2023-03-01 13:54:19.057
163.0, 10579.773554774947, 14305.54113454117, 0.0, 0.0, 0.0, 0.0, 0.0, 0.0, -0.492, -0.734, 0.51, 192.0, 0.0, 0.0, 0.0, 0.0, 0.0, 0.0, 0.0, 0.0, 0.0, 1.67770765905715E9, 0.0, 2023-03-01 13:54:19.057
164.0, 10565.37903134573, 14292.845343690557, 0.0, 0.0, 0.0, 0.0, 0.0, 0.0, -0.492, -0.734, 0.51, 192.0, 0.0, 0.0, 0.0, 0.0, 0.0, 0.0, 0.0, 0.0, 0.0, 1.67770765906528E9, 0.0, 2023-03-01 13:54:19.065
165.0, 10564.462609823062, 14294.58877975807, 0.0, 0.0, 0.0, 0.0, 0.0, 0.0, -0.492, -0.734, 0.51, 192.0, 0.0, 0.0, 0.0, 0.0, 0.0, 0.0, 0.0, 0.0, 0.0, 1.677707659065292E9, 0.0, 2023-03-01 13:54:19.065
166.0, 10561.601586532783, 14292.219494845807, 0.0, 0.0, 0.0, 0.0, 0.0, 0.0, -0.492, -0.734, 0.51, 192.0, 0.0, 0.0, 0.0, 0.0, 0.0, 0.0, 0.0, 0.0, 0.0, 1.677707659073138E9, 0.0, 2023-03-01 13:54:19.073
167.0, 10566.541322057405, 14293.73941346877, 0.0, 0.0, 0.0, 0.0, 0.0, 0.0, -0.492, -0.734, 0.51, 192.0, 0.0, 0.0, 0.0, 0.0, 0.0, 0.0, 0.0, 0.0, 0.0, 1.677707659073176E9, 0.0, 2023-03-01 13:54:19.073
168.0, 10563.501484811484, 14289.894913422457, 0.0, 0.0, 0.0, 0.0, 0.0, 0.0, -0.492, -0.734, 0.51, 192.0, 0.0, 0.0, 0.0, 0.0, 0.0, 0.0, 0.0, 0.0, 0.0, 1.677707659080371E9, 0.0, 2023-03-01 13:54:19.080
169.0, 10560.95338594358, 14284.999881386744, 0.0, 0.0, 0.0, 0.0, 0.0, 0.0, -0.492, -0.734, 0.51, 192.0, 0.0, 0.0, 0.0, 0.0, 0.0, 0.0, 0.0, 0.0, 0.0, 1.677707659080383E9, 0.0, 2023-03-01 13:54:19.080
170.0, 10560.886330710213, 14283.390555785962, 0.0, 0.0, 0.0, 0.0, 0.0, 0.0, -0.492, -0.734, 0.506, 192.0, 240.0, 160.0, 233.0, 16.0, 15.0, 208.0, 0.0, 0.0, 0.0, 1.67770765908678E9, 0.0, 2023-03-01 13:54:19.086
171.0, 10565.826066234835, 14289.380823299984, 0.0, 0.0, 0.0, 0.0, 0.0, 0.0, -0.492, -0.734, 0.506, 192.0, 0.0, 0.0, 0.0, 0.0, 0.0, 0.0, 0.0, 0.0, 0.0, 1.677707659094796E9, 0.0, 2023-03-01 13:54:19.094
172.0, 10574.47619133904, 14297.494506537261, 0.0, 0.0, 0.0, 0.0, 0.0, 0.0, -0.492, -0.734, 0.506, 192.0, 0.0, 0.0, 0.0, 0.0, 0.0, 0.0, 0.0, 0.0, 0.0, 1.677707659094812E9, 0.0, 2023-03-01 13:54:19.094
173.0, 10573.917397727657, 14300.8249164611, 0.0, 0.0, 0.0, 0.0, 0.0, 0.0, -0.492, -0.734, 0.506, 192.0, 0.0, 0.0, 0.0, 0.0, 0.0, 0.0, 0.0, 0.0, 0.0, 1.677707659104297E9, 0.0, 2023-03-01 13:54:19.104
174.0, 10561.467476066051, 14292.39830880145, 0.0, 0.0, 0.0, 0.0, 0.0, 0.0, -0.492, -0.734, 0.506, 192.0, 0.0, 0.0, 0.0, 0.0, 0.0, 0.0, 0.0, 0.0, 0.0, 1.677707659104311E9, 0.0, 2023-03-01 13:54:19.104
175.0, 10561.445124321595, 14289.626692488991, 0.0, 0.0, 0.0, 0.0, 0.0, 0.0, -0.492, -0.734, 0.506, 192.0, 0.0, 0.0, 0.0, 0.0, 0.0, 0.0, 0.0, 0.0, 0.0, 1.677707659110412E9, 0.0, 2023-03-01 13:54:19.110
176.0, 10573.559769816371, 14298.276817593196, 0.0, 0.0, 0.0, 0.0, 0.0, 0.0, -0.492, -0.734, 0.506, 192.0, 0.0, 0.0, 0.0, 0.0, 0.0, 0.0, 0.0, 0.0, 0.0, 1.677707659110424E9, 0.0, 2023-03-01 13:54:19.110
177.0, 10560.372240587742, 14291.191314600865, 0.0, 0.0, 0.0, 0.0, 0.0, 0.0, -0.492, -0.734, 0.506, 192.0, 0.0, 0.0, 0.0, 0.0, 0.0, 0.0, 0.0, 0.0, 0.0, 1.677707659117406E9, 0.0, 2023-03-01 13:54:19.117
178.0, 10559.478170809529, 14289.425526788895, 0.0, 0.0, 0.0, 0.0, 0.0, 0.0, -0.492, -0.734, 0.506, 192.0, 0.0, 0.0, 0.0, 0.0, 0.0, 0.0, 0.0, 0.0, 0.0, 1.677707659117415E9, 0.0, 2023-03-01 13:54:19.117
179.0, 10572.464534338062, 14298.433279804383, 0.0, 0.0, 0.0, 0.0, 0.0, 0.0, -0.492, -0.734, 0.506, 192.0, 0.0, 0.0, 0.0, 0.0, 0.0, 0.0, 0.0, 0.0, 0.0, 1.677707659125602E9, 0.0, 2023-03-01 13:54:19.125
180.0, 10568.776496502936, 14289.82785818909, 0.0, 0.0, 0.0, 0.0, 0.0, 0.0, -0.486, -0.732, 0.506, 192.0, 240.0, 208.0, 233.0, 32.0, 15.0, 208.0, 0.0, 0.0, 0.0, 1.67770765912562E9, 0.0, 2023-03-01 13:54:19.125
181.0, 10558.405287075673, 14284.01640463071, 0.0, 0.0, 0.0, 0.0, 0.0, 0.0, -0.486, -0.732, 0.506, 192.0, 0.0, 0.0, 0.0, 0.0, 0.0, 0.0, 0.0, 0.0, 0.0, 1.677707659133631E9, 0.0, 2023-03-01 13:54:19.133
182.0, 10550.872749194235, 14278.495523750249, 0.0, 0.0, 0.0, 0.0, 0.0, 0.0, -0.486, -0.732, 0.506, 192.0, 0.0, 0.0, 0.0, 0.0, 0.0, 0.0, 0.0, 0.0, 0.0, 1.677707659133655E9, 0.0, 2023-03-01 13:54:19.133
183.0, 10555.588967274305, 14278.272006305697, 0.0, 0.0, 0.0, 0.0, 0.0, 0.0, -0.486, -0.732, 0.506, 192.0, 0.0, 0.0, 0.0, 0.0, 0.0, 0.0, 0.0, 0.0, 0.0, 1.677707659140197E9, 0.0, 2023-03-01 13:54:19.140
184.0, 10550.492769538496, 14275.276872548686, 0.0, 0.0, 0.0, 0.0, 0.0, 0.0, -0.486, -0.732, 0.506, 192.0, 0.0, 0.0, 0.0, 0.0, 0.0, 0.0, 0.0, 0.0, 0.0, 1.677707659140256E9, 0.0, 2023-03-01 13:54:19.140
185.0, 10550.47041779404, 14277.132067338476, 0.0, 0.0, 0.0, 0.0, 0.0, 0.0, -0.486, -0.732, 0.506, 192.0, 0.0, 0.0, 0.0, 0.0, 0.0, 0.0, 0.0, 0.0, 0.0, 1.677707659147107E9, 0.0, 2023-03-01 13:54:19.147
186.0, 10556.103057396776, 14283.412907530417, 0.0, 0.0, 0.0, 0.0, 0.0, 0.0, -0.486, -0.732, 0.506, 192.0, 0.0, 0.0, 0.0, 0.0, 0.0, 0.0, 0.0, 0.0, 0.0, 1.67770765914712E9, 0.0, 2023-03-01 13:54:19.147
187.0, 10574.923226228146, 14295.59460825856, 0.0, 0.0, 0.0, 0.0, 0.0, 0.0, -0.486, -0.732, 0.506, 192.0, 0.0, 0.0, 0.0, 0.0, 0.0, 0.0, 0.0, 0.0, 0.0, 1.677707659155244E9, 0.0, 2023-03-01 13:54:19.155
188.0, 10571.816333748859, 14287.950311654844, 0.0, 0.0, 0.0, 0.0, 0.0, 0.0, -0.486, -0.732, 0.506, 192.0, 0.0, 0.0, 0.0, 0.0, 0.0, 0.0, 0.0, 0.0, 0.0, 1.677707659163219E9, 0.0, 2023-03-01 13:54:19.163
189.0, 10559.880502209724, 14279.903683650933, 0.0, 0.0, 0.0, 0.0, 0.0, 0.0, -0.486, -0.732, 0.506, 192.0, 0.0, 0.0, 0.0, 0.0, 0.0, 0.0, 0.0, 0.0, 0.0, 1.677707659163228E9, 0.0, 2023-03-01 13:54:19.163
190.0, 10559.098191153787, 14282.340023796562, 0.0, 0.0, 0.0, 0.0, 0.0, 0.0, -0.488, -0.734, 0.512, 192.0, 240.0, 192.0, 233.0, 16.0, 16.0, 0.0, 0.0, 0.0, 0.0, 1.677707659169668E9, 0.0, 2023-03-01 13:54:19.169
191.0, 10564.641423778705, 14280.954215640333, 0.0, 0.0, 0.0, 0.0, 0.0, 0.0, -0.488, -0.734, 0.512, 192.0, 0.0, 0.0, 0.0, 0.0, 0.0, 0.0, 0.0, 0.0, 0.0, 1.677707659169687E9, 0.0, 2023-03-01 13:54:19.169
192.0, 10566.18369414612, 14281.49065750726, 0.0, 0.0, 0.0, 0.0, 0.0, 0.0, -0.488, -0.734, 0.512, 192.0, 0.0, 0.0, 0.0, 0.0, 0.0, 0.0, 0.0, 0.0, 0.0, 1.677707659177828E9, 0.0, 2023-03-01 13:54:19.177
193.0, 10565.736659257014, 14280.015442373211, 0.0, 0.0, 0.0, 0.0, 0.0, 0.0, -0.488, -0.734, 0.512, 192.0, 0.0, 0.0, 0.0, 0.0, 0.0, 0.0, 0.0, 0.0, 0.0, 1.677707659177849E9, 0.0, 2023-03-01 13:54:19.177
194.0, 10557.488865553007, 14274.718078937303, 0.0, 0.0, 0.0, 0.0, 0.0, 0.0, -0.488, -0.734, 0.512, 192.0, 0.0, 0.0, 0.0, 0.0, 0.0, 0.0, 0.0, 0.0, 0.0, 1.677707659185793E9, 0.0, 2023-03-01 13:54:19.185
195.0, 10557.399458575184, 14276.930901638378, 0.0, 0.0, 0.0, 0.0, 0.0, 0.0, -0.488, -0.734, 0.512, 192.0, 0.0, 0.0, 0.0, 0.0, 0.0, 0.0, 0.0, 0.0, 0.0, 1.677707659185809E9, 0.0, 2023-03-01 13:54:19.185
196.0, 10560.32753709883, 14277.154419082932, 0.0, 0.0, 0.0, 0.0, 0.0, 0.0, -0.488, -0.734, 0.512, 192.0, 0.0, 0.0, 0.0, 0.0, 0.0, 0.0, 0.0, 0.0, 0.0, 1.677707659192741E9, 0.0, 2023-03-01 13:54:19.192
197.0, 10553.622013762239, 14269.085439334565, 0.0, 0.0, 0.0, 0.0, 0.0, 0.0, -0.488, -0.734, 0.512, 192.0, 0.0, 0.0, 0.0, 0.0, 0.0, 0.0, 0.0, 0.0, 0.0, 1.677707659192753E9, 0.0, 2023-03-01 13:54:19.192
198.0, 10557.377106830729, 14274.516913237205, 0.0, 0.0, 0.0, 0.0, 0.0, 0.0, -0.488, -0.734, 0.512, 192.0, 0.0, 0.0, 0.0, 0.0, 0.0, 0.0, 0.0, 0.0, 0.0, 1.677707659200379E9, 0.0, 2023-03-01 13:54:19.200
199.0, 10560.595758032294, 14280.35071854004, 0.0, 0.0, 0.0, 0.0, 0.0, 0.0, -0.488, -0.734, 0.512, 192.0, 0.0, 0.0, 0.0, 0.0, 0.0, 0.0, 0.0, 0.0, 0.0, 1.677707659200393E9, 0.0, 2023-03-01 13:54:19.200
200.0, 10572.799810504892, 14289.82785818909, 0.0, 0.0, 0.0, 0.0, 0.0, 0.0, -0.486, -0.736, 0.506, 192.0, 240.0, 208.0, 233.0, 0.0, 15.0, 208.0, 0.0, 0.0, 0.0, 1.677707659208397E9, 0.0, 2023-03-01 13:54:19.208
201.0, 10573.13508667172, 14293.471192535306, 0.0, 0.0, 0.0, 0.0, 0.0, 0.0, -0.486, -0.736, 0.506, 192.0, 0.0, 0.0, 0.0, 0.0, 0.0, 0.0, 0.0, 0.0, 0.0, 1.677707659208439E9, 0.0, 2023-03-01 13:54:19.208
202.0, 10566.250749379487, 14287.9726633993, 0.0, 0.0, 0.0, 0.0, 0.0, 0.0, -0.486, -0.736, 0.506, 192.0, 0.0, 0.0, 0.0, 0.0, 0.0, 0.0, 0.0, 0.0, 0.0, 1.677707659215457E9, 0.0, 2023-03-01 13:54:19.215
203.0, 10574.118563427755, 14293.337082068574, 0.0, 0.0, 0.0, 0.0, 0.0, 0.0, -0.486, -0.736, 0.506, 192.0, 0.0, 0.0, 0.0, 0.0, 0.0, 0.0, 0.0, 0.0, 0.0, 1.677707659222126E9, 0.0, 2023-03-01 13:54:19.222
204.0, 10564.887292967713, 14281.06597436261, 0.0, 0.0, 0.0, 0.0, 0.0, 0.0, -0.486, -0.736, 0.506, 192.0, 0.0, 0.0, 0.0, 0.0, 0.0, 0.0, 0.0, 0.0, 0.0, 1.677707659222153E9, 0.0, 2023-03-01 13:54:19.222
205.0, 10569.558807558871, 14281.781230185179, 0.0, 0.0, 0.0, 0.0, 0.0, 0.0, -0.486, -0.736, 0.506, 192.0, 0.0, 0.0, 0.0, 0.0, 0.0, 0.0, 0.0, 0.0, 0.0, 1.677707659230009E9, 0.0, 2023-03-01 13:54:19.230
206.0, 10561.42277257714, 14279.769573184201, 0.0, 0.0, 0.0, 0.0, 0.0, 0.0, -0.486, -0.736, 0.506, 192.0, 0.0, 0.0, 0.0, 0.0, 0.0, 0.0, 0.0, 0.0, 0.0, 1.677707659230027E9, 0.0, 2023-03-01 13:54:19.230
207.0, 10562.070973166345, 14281.892988907455, 0.0, 0.0, 0.0, 0.0, 0.0, 0.0, -0.486, -0.736, 0.506, 192.0, 0.0, 0.0, 0.0, 0.0, 0.0, 0.0, 0.0, 0.0, 0.0, 1.677707659238084E9, 0.0, 2023-03-01 13:54:19.238
208.0, 10577.76189777397, 14289.559637255627, 0.0, 0.0, 0.0, 0.0, 0.0, 0.0, -0.486, -0.736, 0.506, 192.0, 0.0, 0.0, 0.0, 0.0, 0.0, 0.0, 0.0, 0.0, 0.0, 1.677707659238094E9, 0.0, 2023-03-01 13:54:19.238
209.0, 10573.291548882908, 14286.63155873198, 0.0, 0.0, 0.0, 0.0, 0.0, 0.0, -0.486, -0.736, 0.506, 192.0, 0.0, 0.0, 0.0, 0.0, 0.0, 0.0, 0.0, 0.0, 0.0, 1.677707659245266E9, 0.0, 2023-03-01 13:54:19.245
210.0, 10563.881464467224, 14279.25548306173, 0.0, 0.0, 0.0, 0.0, 0.0, 0.0, -0.488, -0.74, 0.508, 192.0, 240.0, 192.0, 232.0, 224.0, 15.0, 224.0, 0.0, 0.0, 0.0, 1.677707659245278E9, 0.0, 2023-03-01 13:54:19.245
211.0, 10561.37806908823, 14277.713212694314, 0.0, 0.0, 0.0, 0.0, 0.0, 0.0, -0.488, -0.74, 0.508, 192.0, 0.0, 0.0, 0.0, 0.0, 0.0, 0.0, 0.0, 0.0, 0.0, 1.677707659252622E9, 0.0, 2023-03-01 13:54:19.252
212.0, 10568.642386036205, 14284.999881386744, 0.0, 0.0, 0.0, 0.0, 0.0, 0.0, -0.488, -0.74, 0.508, 192.0, 0.0, 0.0, 0.0, 0.0, 0.0, 0.0, 0.0, 0.0, 0.0, 1.677707659252631E9, 0.0, 2023-03-01 13:54:19.252
213.0, 10567.927130213635, 14282.272968563197, 0.0, 0.0, 0.0, 0.0, 0.0, 0.0, -0.488, -0.74, 0.508, 192.0, 0.0, 0.0, 0.0, 0.0, 0.0, 0.0, 0.0, 0.0, 0.0, 1.677707659260679E9, 0.0, 2023-03-01 13:54:19.260
214.0, 10563.94851970059, 14276.081535349076, 0.0, 0.0, 0.0, 0.0, 0.0, 0.0, -0.488, -0.74, 0.508, 192.0, 0.0, 0.0, 0.0, 0.0, 0.0, 0.0, 0.0, 0.0, 0.0, 1.677707659260696E9, 0.0, 2023-03-01 13:54:19.260
215.0, 10577.627787307238, 14286.184523842874, 0.0, 0.0, 0.0, 0.0, 0.0, 0.0, -0.488, -0.74, 0.508, 192.0, 0.0, 0.0, 0.0, 0.0, 0.0, 0.0, 0.0, 0.0, 0.0, 1.677707659268605E9, 0.0, 2023-03-01 13:54:19.268
216.0, 10584.914455999668, 14286.54215175416, 0.0, 0.0, 0.0, 0.0, 0.0, 0.0, -0.488, -0.74, 0.508, 192.0, 0.0, 0.0, 0.0, 0.0, 0.0, 0.0, 0.0, 0.0, 0.0, 1.67770765926862E9, 0.0, 2023-03-01 13:54:19.268
217.0, 10587.194333934109, 14285.40221278694, 0.0, 0.0, 0.0, 0.0, 0.0, 0.0, -0.488, -0.74, 0.508, 192.0, 0.0, 0.0, 0.0, 0.0, 0.0, 0.0, 0.0, 0.0, 0.0, 1.677707659274837E9, 0.0, 2023-03-01 13:54:19.274
218.0, 10568.888255225213, 14273.086401592065, 0.0, 0.0, 0.0, 0.0, 0.0, 0.0, -0.488, -0.74, 0.508, 192.0, 0.0, 0.0, 0.0, 0.0, 0.0, 0.0, 0.0, 0.0, 0.0, 1.677707659283674E9, 0.0, 2023-03-01 13:54:19.283
219.0, 10567.927130213635, 14280.618939473503, 0.0, 0.0, 0.0, 0.0, 0.0, 0.0, -0.488, -0.74, 0.508, 192.0, 0.0, 0.0, 0.0, 0.0, 0.0, 0.0, 0.0, 0.0, 0.0, 1.677707659283687E9, 0.0, 2023-03-01 13:54:19.283
220.0, 10571.883388982224, 14286.430393031884, 0.0, 0.0, 0.0, 0.0, 0.0, 0.0, -0.49, -0.738, 0.516, 192.0, 240.0, 176.0, 232.0, 240.0, 16.0, 32.0, 0.0, 0.0, 0.0, 1.677707659290331E9, 0.0, 2023-03-01 13:54:19.290
221.0, 10563.143856900198, 14271.588834713559, 0.0, 0.0, 0.0, 0.0, 0.0, 0.0, -0.49, -0.738, 0.516, 192.0, 0.0, 0.0, 0.0, 0.0, 0.0, 0.0, 0.0, 0.0, 0.0, 1.677707659290346E9, 0.0, 2023-03-01 13:54:19.290
222.0, 10572.017499448955, 14281.624767973992, 0.0, 0.0, 0.0, 0.0, 0.0, 0.0, -0.49, -0.738, 0.516, 192.0, 0.0, 0.0, 0.0, 0.0, 0.0, 0.0, 0.0, 0.0, 0.0, 1.677707659298344E9, 0.0, 2023-03-01 13:54:19.298
223.0, 10584.534476343928, 14293.158268112931, 0.0, 0.0, 0.0, 0.0, 0.0, 0.0, -0.49, -0.738, 0.516, 192.0, 0.0, 0.0, 0.0, 0.0, 0.0, 0.0, 0.0, 0.0, 0.0, 1.677707659298353E9, 0.0, 2023-03-01 13:54:19.298
224.0, 10577.247807651498, 14287.995015143755, 0.0, 0.0, 0.0, 0.0, 0.0, 0.0, -0.49, -0.738, 0.516, 192.0, 0.0, 0.0, 0.0, 0.0, 0.0, 0.0, 0.0, 0.0, 0.0, 1.677707659304971E9, 0.0, 2023-03-01 13:54:19.304
225.0, 10585.160325188675, 14292.286550079174, 0.0, 0.0, 0.0, 0.0, 0.0, 0.0, -0.49, -0.738, 0.516, 192.0, 0.0, 0.0, 0.0, 0.0, 0.0, 0.0, 0.0, 0.0, 0.0, 1.677707659304987E9, 0.0, 2023-03-01 13:54:19.304
226.0, 10583.52864784344, 14287.9726633993, 0.0, 0.0, 0.0, 0.0, 0.0, 0.0, -0.49, -0.738, 0.516, 192.0, 0.0, 0.0, 0.0, 0.0, 0.0, 0.0, 0.0, 0.0, 0.0, 1.677707659312943E9, 0.0, 2023-03-01 13:54:19.312
227.0, 10579.393575119208, 14284.68695696437, 0.0, 0.0, 0.0, 0.0, 0.0, 0.0, -0.49, -0.738, 0.516, 192.0, 0.0, 0.0, 0.0, 0.0, 0.0, 0.0, 0.0, 0.0, 0.0, 1.67770765931296E9, 0.0, 2023-03-01 13:54:19.312
228.0, 10584.176848432642, 14290.185486100376, 0.0, 0.0, 0.0, 0.0, 0.0, 0.0, -0.49, -0.738, 0.516, 192.0, 0.0, 0.0, 0.0, 0.0, 0.0, 0.0, 0.0, 0.0, 0.0, 1.677707659320864E9, 0.0, 2023-03-01 13:54:19.320
229.0, 10583.685110054626, 14283.524666252693, 0.0, 0.0, 0.0, 0.0, 0.0, 0.0, -0.49, -0.738, 0.516, 192.0, 0.0, 0.0, 0.0, 0.0, 0.0, 0.0, 0.0, 0.0, 0.0, 1.677707659320883E9, 0.0, 2023-03-01 13:54:19.320
230.0, 10581.76286003147, 14281.11067785152, 0.0, 0.0, 0.0, 0.0, 0.0, 0.0, -0.49, -0.738, 0.516, 192.0, 0.0, 0.0, 0.0, 0.0, 0.0, 0.0, 0.0, 0.0, 0.0, 1.67770765932803E9, 0.0, 2023-03-01 13:54:19.328
231.0, 10571.011670948466, 14275.790962671157, 0.0, 0.0, 0.0, 0.0, 0.0, 0.0, -0.484, -0.722, 0.508, 192.0, 240.0, 224.0, 233.0, 112.0, 15.0, 224.0, 0.0, 0.0, 0.0, 1.677707659328043E9, 0.0, 2023-03-01 13:54:19.328
232.0, 10572.24101689351, 14285.648081975947, 0.0, 0.0, 0.0, 0.0, 0.0, 0.0, -0.484, -0.722, 0.508, 192.0, 0.0, 0.0, 0.0, 0.0, 0.0, 0.0, 0.0, 0.0, 0.0, 1.677707659334469E9, 0.0, 2023-03-01 13:54:19.334
233.0, 10591.463517125072, 14297.650968748447, 0.0, 0.0, 0.0, 0.0, 0.0, 0.0, -0.484, -0.722, 0.508, 192.0, 0.0, 0.0, 0.0, 0.0, 0.0, 0.0, 0.0, 0.0, 0.0, 1.677707659342603E9, 0.0, 2023-03-01 13:54:19.342
234.0, 10580.220589664053, 14286.810372687623, 0.0, 0.0, 0.0, 0.0, 0.0, 0.0, -0.484, -0.722, 0.508, 192.0, 0.0, 0.0, 0.0, 0.0, 0.0, 0.0, 0.0, 0.0, 0.0, 1.677707659342612E9, 0.0, 2023-03-01 13:54:19.342
235.0, 10566.18369414612, 14272.393497513951, 0.0, 0.0, 0.0, 0.0, 0.0, 0.0, -0.484, -0.722, 0.508, 192.0, 0.0, 0.0, 0.0, 0.0, 0.0, 0.0, 0.0, 0.0, 0.0, 1.677707659350492E9, 0.0, 2023-03-01 13:54:19.350
236.0, 10573.671528538649, 14281.73652669627, 0.0, 0.0, 0.0, 0.0, 0.0, 0.0, -0.484, -0.722, 0.508, 192.0, 0.0, 0.0, 0.0, 0.0, 0.0, 0.0, 0.0, 0.0, 0.0, 1.677707659350508E9, 0.0, 2023-03-01 13:54:19.350
237.0, 10563.792057489403, 14271.611186458014, 0.0, 0.0, 0.0, 0.0, 0.0, 0.0, -0.484, -0.722, 0.508, 192.0, 0.0, 0.0, 0.0, 0.0, 0.0, 0.0, 0.0, 0.0, 0.0, 1.677707659358645E9, 0.0, 2023-03-01 13:54:19.358
238.0, 10575.347909372796, 14275.120410337498, 0.0, 0.0, 0.0, 0.0, 0.0, 0.0, -0.484, -0.722, 0.508, 192.0, 0.0, 0.0, 0.0, 0.0, 0.0, 0.0, 0.0, 0.0, 0.0, 1.677707659358662E9, 0.0, 2023-03-01 13:54:19.358
239.0, 10577.158400673676, 14286.095116865054, 0.0, 0.0, 0.0, 0.0, 0.0, 0.0, -0.484, -0.722, 0.508, 192.0, 0.0, 0.0, 0.0, 0.0, 0.0, 0.0, 0.0, 0.0, 0.0, 1.677707659365683E9, 0.0, 2023-03-01 13:54:19.365
240.0, 10584.690938555115, 14286.229227331785, 0.0, 0.0, 0.0, 0.0, 0.0, 0.0, -0.484, -0.722, 0.508, 192.0, 0.0, 0.0, 0.0, 0.0, 0.0, 0.0, 0.0, 0.0, 0.0, 1.677707659365699E9, 0.0, 2023-03-01 13:54:19.365
241.0, 10591.396461891707, 14289.939616911366, 0.0, 0.0, 0.0, 0.0, 0.0, 0.0, -0.484, -0.728, 0.508, 192.0, 240.0, 224.0, 233.0, 64.0, 15.0, 224.0, 0.0, 0.0, 0.0, 1.6777076593736E9, 0.0, 2023-03-01 13:54:19.373
242.0, 10585.629711822237, 14284.597549986549, 0.0, 0.0, 0.0, 0.0, 0.0, 0.0, -0.484, -0.728, 0.508, 192.0, 0.0, 0.0, 0.0, 0.0, 0.0, 0.0, 0.0, 0.0, 0.0, 1.677707659373613E9, 0.0, 2023-03-01 13:54:19.373
243.0, 10595.039796237921, 14286.318634309608, 0.0, 0.0, 0.0, 0.0, 0.0, 0.0, -0.484, -0.728, 0.508, 192.0, 0.0, 0.0, 0.0, 0.0, 0.0, 0.0, 0.0, 0.0, 0.0, 1.677707659382646E9, 0.0, 2023-03-01 13:54:19.382
244.0, 10593.206953192586, 14298.209762359831, 0.0, 0.0, 0.0, 0.0, 0.0, 0.0, -0.484, -0.728, 0.508, 192.0, 0.0, 0.0, 0.0, 0.0, 0.0, 0.0, 0.0, 0.0, 0.0, 1.677707659382664E9, 0.0, 2023-03-01 13:54:19.382
245.0, 10570.788153503914, 14272.237035302764, 0.0, 0.0, 0.0, 0.0, 0.0, 0.0, -0.484, -0.728, 0.508, 192.0, 0.0, 0.0, 0.0, 0.0, 0.0, 0.0, 0.0, 0.0, 0.0, 1.677707659388768E9, 0.0, 2023-03-01 13:54:19.388
246.0, 10580.198237919598, 14278.495523750249, 0.0, 0.0, 0.0, 0.0, 0.0, 0.0, -0.484, -0.728, 0.508, 192.0, 0.0, 0.0, 0.0, 0.0, 0.0, 0.0, 0.0, 0.0, 0.0, 1.677707659388777E9, 0.0, 2023-03-01 13:54:19.388
247.0, 10581.740508287014, 14283.9717011418, 0.0, 0.0, 0.0, 0.0, 0.0, 0.0, -0.484, -0.728, 0.508, 192.0, 0.0, 0.0, 0.0, 0.0, 0.0, 0.0, 0.0, 0.0, 0.0, 1.677707659395113E9, 0.0, 2023-03-01 13:54:19.395
248.0, 10572.620996549249, 14279.724869695292, 0.0, 0.0, 0.0, 0.0, 0.0, 0.0, -0.484, -0.728, 0.508, 192.0, 0.0, 0.0, 0.0, 0.0, 0.0, 0.0, 0.0, 0.0, 0.0, 1.677707659395135E9, 0.0, 2023-03-01 13:54:19.395
249.0, 10579.818258263858, 14291.571294256604, 0.0, 0.0, 0.0, 0.0, 0.0, 0.0, -0.484, -0.728, 0.508, 192.0, 0.0, 0.0, 0.0, 0.0, 0.0, 0.0, 0.0, 0.0, 0.0, 1.677707659402832E9, 0.0, 2023-03-01 13:54:19.402
250.0, 10590.43533688013, 14288.330291310585, 0.0, 0.0, 0.0, 0.0, 0.0, 0.0, -0.484, -0.728, 0.508, 192.0, 0.0, 0.0, 0.0, 0.0, 0.0, 0.0, 0.0, 0.0, 0.0, 1.677707659409843E9, 0.0, 2023-03-01 13:54:19.409
251.0, 10591.843496780813, 14287.9726633993, 0.0, 0.0, 0.0, 0.0, 0.0, 0.0, -0.49, -0.734, 0.506, 192.0, 240.0, 176.0, 233.0, 16.0, 15.0, 208.0, 0.0, 0.0, 0.0, 1.677707659409862E9, 0.0, 2023-03-01 13:54:19.409
252.0, 10578.275987896443, 14274.762782426213, 0.0, 0.0, 0.0, 0.0, 0.0, 0.0, -0.49, -0.734, 0.506, 192.0, 0.0, 0.0, 0.0, 0.0, 0.0, 0.0, 0.0, 0.0, 0.0, 1.677707659417518E9, 0.0, 2023-03-01 13:54:19.417
253.0, 10568.016537191455, 14261.999936342232, 0.0, 0.0, 0.0, 0.0, 0.0, 0.0, -0.49, -0.734, 0.506, 192.0, 0.0, 0.0, 0.0, 0.0, 0.0, 0.0, 0.0, 0.0, 0.0, 1.677707659417533E9, 0.0, 2023-03-01 13:54:19.417
254.0, 10577.270159395954, 14257.261366517707, 0.0, 0.0, 0.0, 0.0, 0.0, 0.0, -0.49, -0.734, 0.506, 192.0, 0.0, 0.0, 0.0, 0.0, 0.0, 0.0, 0.0, 0.0, 0.0, 1.677707659425454E9, 0.0, 2023-03-01 13:54:19.425
255.0, 10597.274970683453, 14283.412907530417, 0.0, 0.0, 0.0, 0.0, 0.0, 0.0, -0.49, -0.734, 0.506, 192.0, 0.0, 0.0, 0.0, 0.0, 0.0, 0.0, 0.0, 0.0, 0.0, 1.677707659425467E9, 0.0, 2023-03-01 13:54:19.425
0.0, 10591.66468282517, 14275.120410337498, 0.0, 0.0, 0.0, 0.0, 0.0, 0.0, -0.49, -0.734, 0.506, 192.0, 0.0, 0.0, 0.0, 0.0, 0.0, 0.0, 0.0, 0.0, 0.0, 1.677707659433495E9, 0.0, 2023-03-01 13:54:19.433
1.0, 10588.624845579248, 14280.797753429146, 0.0, 0.0, 0.0, 0.0, 0.0, 0.0, -0.49, -0.734, 0.506, 192.0, 0.0, 0.0, 0.0, 0.0, 0.0, 0.0, 0.0, 0.0, 0.0, 1.677707659433503E9, 0.0, 2023-03-01 13:54:19.433
2.0, 10588.110755456777, 14287.033890132177, 0.0, 0.0, 0.0, 0.0, 0.0, 0.0, -0.49, -0.734, 0.506, 192.0, 0.0, 0.0, 0.0, 0.0, 0.0, 0.0, 0.0, 0.0, 0.0, 1.67770765944016E9, 0.0, 2023-03-01 13:54:19.440
3.0, 10575.146743672698, 14267.878445133978, 0.0, 0.0, 0.0, 0.0, 0.0, 0.0, -0.49, -0.734, 0.506, 192.0, 0.0, 0.0, 0.0, 0.0, 0.0, 0.0, 0.0, 0.0, 0.0, 1.677707659440178E9, 0.0, 2023-03-01 13:54:19.440
4.0, 10573.448011094095, 14271.119448079999, 0.0, 0.0, 0.0, 0.0, 0.0, 0.0, -0.49, -0.734, 0.506, 192.0, 0.0, 0.0, 0.0, 0.0, 0.0, 0.0, 0.0, 0.0, 0.0, 1.677707659448025E9, 0.0, 2023-03-01 13:54:19.448
5.0, 10573.738583772014, 14274.963948126311, 0.0, 0.0, 0.0, 0.0, 0.0, 0.0, -0.494, -0.732, 0.51, 192.0, 240.0, 144.0, 233.0, 32.0, 15.0, 240.0, 0.0, 0.0, 0.0, 1.677707659448055E9, 0.0, 2023-03-01 13:54:19.448
6.0, 10590.52474385795, 14283.502314508238, 0.0, 0.0, 0.0, 0.0, 0.0, 0.0, -0.494, -0.732, 0.51, 192.0, 0.0, 0.0, 0.0, 0.0, 0.0, 0.0, 0.0, 0.0, 0.0, 1.677707659456044E9, 0.0, 2023-03-01 13:54:19.456
7.0, 10578.365394874263, 14272.751125425235, 0.0, 0.0, 0.0, 0.0, 0.0, 0.0, -0.494, -0.732, 0.51, 192.0, 0.0, 0.0, 0.0, 0.0, 0.0, 0.0, 0.0, 0.0, 0.0, 1.677707659456063E9, 0.0, 2023-03-01 13:54:19.456
8.0, 10582.500467598495, 14279.63546271747, 0.0, 0.0, 0.0, 0.0, 0.0, 0.0, -0.494, -0.732, 0.51, 192.0, 0.0, 0.0, 0.0, 0.0, 0.0, 0.0, 0.0, 0.0, 0.0, 1.677707659463113E9, 0.0, 2023-03-01 13:54:19.463
9.0, 10592.514049114472, 14292.39830880145, 0.0, 0.0, 0.0, 0.0, 0.0, 0.0, -0.494, -0.732, 0.51, 192.0, 0.0, 0.0, 0.0, 0.0, 0.0, 0.0, 0.0, 0.0, 0.0, 1.677707659469866E9, 0.0, 2023-03-01 13:54:19.469
10.0, 10576.174923917642, 14271.611186458014, 0.0, 0.0, 0.0, 0.0, 0.0, 0.0, -0.494, -0.732, 0.51, 192.0, 0.0, 0.0, 0.0, 0.0, 0.0, 0.0, 0.0, 0.0, 0.0, 1.677707659469878E9, 0.0, 2023-03-01 13:54:19.469
11.0, 10580.37705187524, 14273.913416136911, 0.0, 0.0, 0.0, 0.0, 0.0, 0.0, -0.494, -0.732, 0.51, 192.0, 0.0, 0.0, 0.0, 0.0, 0.0, 0.0, 0.0, 0.0, 0.0, 1.677707659477876E9, 0.0, 2023-03-01 13:54:19.477
12.0, 10573.090383182811, 14272.43820100286, 0.0, 0.0, 0.0, 0.0, 0.0, 0.0, -0.494, -0.732, 0.51, 192.0, 0.0, 0.0, 0.0, 0.0, 0.0, 0.0, 0.0, 0.0, 0.0, 1.677707659477885E9, 0.0, 2023-03-01 13:54:19.477
13.0, 10569.290586625408, 14264.101000321032, 0.0, 0.0, 0.0, 0.0, 0.0, 0.0, -0.494, -0.732, 0.51, 192.0, 0.0, 0.0, 0.0, 0.0, 0.0, 0.0, 0.0, 0.0, 0.0, 1.677707659485772E9, 0.0, 2023-03-01 13:54:19.485
14.0, 10583.796868776903, 14279.724869695292, 0.0, 0.0, 0.0, 0.0, 0.0, 0.0, -0.494, -0.732, 0.51, 192.0, 0.0, 0.0, 0.0, 0.0, 0.0, 0.0, 0.0, 0.0, 0.0, 1.677707659485791E9, 0.0, 2023-03-01 13:54:19.485
15.0, 10583.349833887796, 14274.673375448392, 0.0, 0.0, 0.0, 0.0, 0.0, 0.0, -0.486, -0.736, 0.516, 192.0, 240.0, 208.0, 233.0, 0.0, 16.0, 32.0, 0.0, 0.0, 0.0, 1.677707659492831E9, 0.0, 2023-03-01 13:54:19.492
16.0, 10591.843496780813, 14283.34585229705, 0.0, 0.0, 0.0, 0.0, 0.0, 0.0, -0.486, -0.736, 0.516, 192.0, 0.0, 0.0, 0.0, 0.0, 0.0, 0.0, 0.0, 0.0, 0.0, 1.677707659492854E9, 0.0, 2023-03-01 13:54:19.492
17.0, 10587.23903742302, 14269.934805623867, 0.0, 0.0, 0.0, 0.0, 0.0, 0.0, -0.486, -0.736, 0.516, 192.0, 0.0, 0.0, 0.0, 0.0, 0.0, 0.0, 0.0, 0.0, 0.0, 1.677707659500405E9, 0.0, 2023-03-01 13:54:19.500
18.0, 10576.487848340017, 14254.735619394258, 0.0, 0.0, 0.0, 0.0, 0.0, 0.0, -0.486, -0.736, 0.516, 192.0, 0.0, 0.0, 0.0, 0.0, 0.0, 0.0, 0.0, 0.0, 0.0, 1.67770765950042E9, 0.0, 2023-03-01 13:54:19.500
19.0, 10592.312883414375, 14277.82497141659, 0.0, 0.0, 0.0, 0.0, 0.0, 0.0, -0.486, -0.736, 0.516, 192.0, 0.0, 0.0, 0.0, 0.0, 0.0, 0.0, 0.0, 0.0, 0.0, 1.677707659508274E9, 0.0, 2023-03-01 13:54:19.508
20.0, 10588.557790345883, 14284.798715686646, 0.0, 0.0, 0.0, 0.0, 0.0, 0.0, -0.486, -0.736, 0.516, 192.0, 0.0, 0.0, 0.0, 0.0, 0.0, 0.0, 0.0, 0.0, 0.0, 1.677707659508292E9, 0.0, 2023-03-01 13:54:19.508
21.0, 10587.775479289947, 14278.942558639355, 0.0, 0.0, 0.0, 0.0, 0.0, 0.0, -0.486, -0.736, 0.516, 192.0, 0.0, 0.0, 0.0, 0.0, 0.0, 0.0, 0.0, 0.0, 0.0, 1.677707659516398E9, 0.0, 2023-03-01 13:54:19.516
22.0, 10582.947502487601, 14277.914378394411, 0.0, 0.0, 0.0, 0.0, 0.0, 0.0, -0.486, -0.736, 0.516, 192.0, 0.0, 0.0, 0.0, 0.0, 0.0, 0.0, 0.0, 0.0, 0.0, 1.677707659516412E9, 0.0, 2023-03-01 13:54:19.516
23.0, 10581.293473397907, 14268.325480023084, 0.0, 0.0, 0.0, 0.0, 0.0, 0.0, -0.486, -0.736, 0.516, 192.0, 0.0, 0.0, 0.0, 0.0, 0.0, 0.0, 0.0, 0.0, 0.0, 1.677707659522617E9, 0.0, 2023-03-01 13:54:19.522
24.0, 10594.481002626539, 14280.015442373211, 0.0, 0.0, 0.0, 0.0, 0.0, 0.0, -0.486, -0.736, 0.516, 192.0, 0.0, 0.0, 0.0, 0.0, 0.0, 0.0, 0.0, 0.0, 0.0, 1.677707659530074E9, 0.0, 2023-03-01 13:54:19.530
25.0, 10593.452822381596, 14291.325425067596, 0.0, 0.0, 0.0, 0.0, 0.0, 0.0, -0.486, -0.74, 0.508, 192.0, 240.0, 208.0, 232.0, 224.0, 15.0, 224.0, 0.0, 0.0, 0.0, 1.677707659530092E9, 0.0, 2023-03-01 13:54:19.530
26.0, 10581.248769908998, 14272.661718447414, 0.0, 0.0, 0.0, 0.0, 0.0, 0.0, -0.486, -0.74, 0.508, 192.0, 0.0, 0.0, 0.0, 0.0, 0.0, 0.0, 0.0, 0.0, 0.0, 1.677707659538004E9, 0.0, 2023-03-01 13:54:19.538
27.0, 10585.786174033425, 14276.729735938281, 0.0, 0.0, 0.0, 0.0, 0.0, 0.0, -0.486, -0.74, 0.508, 192.0, 0.0, 0.0, 0.0, 0.0, 0.0, 0.0, 0.0, 0.0, 0.0, 1.677707659538029E9, 0.0, 2023-03-01 13:54:19.538
28.0, 10594.570409604361, 14283.34585229705, 0.0, 0.0, 0.0, 0.0, 0.0, 0.0, -0.486, -0.74, 0.508, 192.0, 0.0, 0.0, 0.0, 0.0, 0.0, 0.0, 0.0, 0.0, 0.0, 1.677707659546087E9, 0.0, 2023-03-01 13:54:19.546
29.0, 10593.855153781791, 14282.340023796562, 0.0, 0.0, 0.0, 0.0, 0.0, 0.0, -0.486, -0.74, 0.508, 192.0, 0.0, 0.0, 0.0, 0.0, 0.0, 0.0, 0.0, 0.0, 0.0, 1.677707659546105E9, 0.0, 2023-03-01 13:54:19.546
30.0, 10593.609284592781, 14289.581989000082, 0.0, 0.0, 0.0, 0.0, 0.0, 0.0, -0.486, -0.74, 0.508, 192.0, 0.0, 0.0, 0.0, 0.0, 0.0, 0.0, 0.0, 0.0, 0.0, 1.677707659552654E9, 0.0, 2023-03-01 13:54:19.552
31.0, 10593.989264248523, 14287.704442465836, 0.0, 0.0, 0.0, 0.0, 0.0, 0.0, -0.486, -0.74, 0.508, 192.0, 0.0, 0.0, 0.0, 0.0, 0.0, 0.0, 0.0, 0.0, 0.0, 1.677707659552663E9, 0.0, 2023-03-01 13:54:19.552
32.0, 10593.564581103872, 14291.057204134131, 0.0, 0.0, 0.0, 0.0, 0.0, 0.0, -0.486, -0.74, 0.508, 192.0, 0.0, 0.0, 0.0, 0.0, 0.0, 0.0, 0.0, 0.0, 0.0, 1.677707659560642E9, 0.0, 2023-03-01 13:54:19.560
33.0, 10587.708424056582, 14279.322538295095, 0.0, 0.0, 0.0, 0.0, 0.0, 0.0, -0.486, -0.74, 0.508, 192.0, 0.0, 0.0, 0.0, 0.0, 0.0, 0.0, 0.0, 0.0, 0.0, 1.677707659560659E9, 0.0, 2023-03-01 13:54:19.560
34.0, 10584.601531577293, 14273.242863803252, 0.0, 0.0, 0.0, 0.0, 0.0, 0.0, -0.486, -0.74, 0.508, 192.0, 0.0, 0.0, 0.0, 0.0, 0.0, 0.0, 0.0, 0.0, 0.0, 1.677707659568694E9, 0.0, 2023-03-01 13:54:19.568
35.0, 10581.226418164542, 14272.125276580487, 0.0, 0.0, 0.0, 0.0, 0.0, 0.0, -0.486, -0.74, 0.504, 192.0, 240.0, 208.0, 232.0, 224.0, 15.0, 192.0, 0.0, 0.0, 0.0, 1.677707659568702E9, 0.0, 2023-03-01 13:54:19.568
36.0, 10585.76382228897, 14278.584930728071, 0.0, 0.0, 0.0, 0.0, 0.0, 0.0, -0.486, -0.74, 0.504, 192.0, 0.0, 0.0, 0.0, 0.0, 0.0, 0.0, 0.0, 0.0, 0.0, 1.677707659575839E9, 0.0, 2023-03-01 13:54:19.575
37.0, 10593.788098548424, 14285.156343597931, 0.0, 0.0, 0.0, 0.0, 0.0, 0.0, -0.486, -0.74, 0.504, 192.0, 0.0, 0.0, 0.0, 0.0, 0.0, 0.0, 0.0, 0.0, 0.0, 1.677707659575856E9, 0.0, 2023-03-01 13:54:19.575
38.0, 10596.023272993956, 14286.16217209842, 0.0, 0.0, 0.0, 0.0, 0.0, 0.0, -0.486, -0.74, 0.504, 192.0, 0.0, 0.0, 0.0, 0.0, 0.0, 0.0, 0.0, 0.0, 0.0, 1.677707659582361E9, 0.0, 2023-03-01 13:54:19.582
39.0, 10584.467421110561, 14275.187465570863, 0.0, 0.0, 0.0, 0.0, 0.0, 0.0, -0.486, -0.74, 0.504, 192.0, 0.0, 0.0, 0.0, 0.0, 0.0, 0.0, 0.0, 0.0, 0.0, 1.677707659590365E9, 0.0, 2023-03-01 13:54:19.590
40.0, 10589.0495287239, 14278.584930728071, 0.0, 0.0, 0.0, 0.0, 0.0, 0.0, -0.486, -0.74, 0.504, 192.0, 0.0, 0.0, 0.0, 0.0, 0.0, 0.0, 0.0, 0.0, 0.0, 1.677707659590382E9, 0.0, 2023-03-01 13:54:19.590
41.0, 10593.81045029288, 14278.942558639355, 0.0, 0.0, 0.0, 0.0, 0.0, 0.0, -0.486, -0.74, 0.504, 192.0, 0.0, 0.0, 0.0, 0.0, 0.0, 0.0, 0.0, 0.0, 0.0, 1.677707659598445E9, 0.0, 2023-03-01 13:54:19.598
42.0, 10584.735642044025, 14270.784171913168, 0.0, 0.0, 0.0, 0.0, 0.0, 0.0, -0.486, -0.74, 0.504, 192.0, 0.0, 0.0, 0.0, 0.0, 0.0, 0.0, 0.0, 0.0, 0.0, 1.677707659598456E9, 0.0, 2023-03-01 13:54:19.598
43.0, 10581.874618753745, 14272.281738791675, 0.0, 0.0, 0.0, 0.0, 0.0, 0.0, -0.486, -0.74, 0.504, 192.0, 0.0, 0.0, 0.0, 0.0, 0.0, 0.0, 0.0, 0.0, 0.0, 1.677707659605495E9, 0.0, 2023-03-01 13:54:19.605
44.0, 10588.490735112517, 14272.885235891967, 0.0, 0.0, 0.0, 0.0, 0.0, 0.0, -0.486, -0.74, 0.504, 192.0, 0.0, 0.0, 0.0, 0.0, 0.0, 0.0, 0.0, 0.0, 0.0, 1.677707659605508E9, 0.0, 2023-03-01 13:54:19.605
45.0, 10587.283740911931, 14266.939671866856, 0.0, 0.0, 0.0, 0.0, 0.0, 0.0, -0.486, -0.738, 0.504, 192.0, 240.0, 208.0, 232.0, 240.0, 15.0, 192.0, 0.0, 0.0, 0.0, 1.677707659612902E9, 0.0, 2023-03-01 13:54:19.612
46.0, 10590.502392113494, 14275.25452080423, 0.0, 0.0, 0.0, 0.0, 0.0, 0.0, -0.486, -0.738, 0.504, 192.0, 0.0, 0.0, 0.0, 0.0, 0.0, 0.0, 0.0, 0.0, 0.0, 1.677707659612911E9, 0.0, 2023-03-01 13:54:19.612
47.0, 10590.43533688013, 14279.099020850543, 0.0, 0.0, 0.0, 0.0, 0.0, 0.0, -0.486, -0.738, 0.504, 192.0, 0.0, 0.0, 0.0, 0.0, 0.0, 0.0, 0.0, 0.0, 0.0, 1.677707659621052E9, 0.0, 2023-03-01 13:54:19.621
48.0, 10600.67243584066, 14286.25157907624, 0.0, 0.0, 0.0, 0.0, 0.0, 0.0, -0.486, -0.738, 0.504, 192.0, 0.0, 0.0, 0.0, 0.0, 0.0, 0.0, 0.0, 0.0, 0.0, 1.677707659621069E9, 0.0, 2023-03-01 13:54:19.621
49.0, 10598.817241050869, 14284.910474408922, 0.0, 0.0, 0.0, 0.0, 0.0, 0.0, -0.486, -0.738, 0.504, 192.0, 0.0, 0.0, 0.0, 0.0, 0.0, 0.0, 0.0, 0.0, 0.0, 1.677707659628228E9, 0.0, 2023-03-01 13:54:19.628
50.0, 10588.982473490534, 14276.237997560263, 0.0, 0.0, 0.0, 0.0, 0.0, 0.0, -0.486, -0.738, 0.504, 192.0, 0.0, 0.0, 0.0, 0.0, 0.0, 0.0, 0.0, 0.0, 0.0, 1.677707659628254E9, 0.0, 2023-03-01 13:54:19.628
51.0, 10586.210857178075, 14276.39445977145, 0.0, 0.0, 0.0, 0.0, 0.0, 0.0, -0.486, -0.738, 0.504, 192.0, 0.0, 0.0, 0.0, 0.0, 0.0, 0.0, 0.0, 0.0, 0.0, 1.67770765963557E9, 0.0, 2023-03-01 13:54:19.635
52.0, 10587.596665334304, 14273.354622525529, 0.0, 0.0, 0.0, 0.0, 0.0, 0.0, -0.486, -0.738, 0.504, 192.0, 0.0, 0.0, 0.0, 0.0, 0.0, 0.0, 0.0, 0.0, 0.0, 1.677707659635587E9, 0.0, 2023-03-01 13:54:19.635
53.0, 10596.604418349794, 14278.16024758342, 0.0, 0.0, 0.0, 0.0, 0.0, 0.0, -0.486, -0.738, 0.504, 192.0, 0.0, 0.0, 0.0, 0.0, 0.0, 0.0, 0.0, 0.0, 0.0, 1.677707659642595E9, 0.0, 2023-03-01 13:54:19.642
54.0, 10598.057281739388, 14286.340986054061, 0.0, 0.0, 0.0, 0.0, 0.0, 0.0, -0.486, -0.738, 0.504, 192.0, 0.0, 0.0, 0.0, 0.0, 0.0, 0.0, 0.0, 0.0, 0.0, 1.677707659642606E9, 0.0, 2023-03-01 13:54:19.642
55.0, 10591.821145036358, 14279.031965617176, 0.0, 0.0, 0.0, 0.0, 0.0, 0.0, -0.486, -0.738, 0.504, 192.0, 0.0, 0.0, 0.0, 0.0, 0.0, 0.0, 0.0, 0.0, 0.0, 1.677707659650639E9, 0.0, 2023-03-01 13:54:19.650
56.0, 10604.33812193133, 14289.090250622065, 0.0, 0.0, 0.0, 0.0, 0.0, 0.0, -0.482, -0.738, 0.5, 192.0, 240.0, 240.0, 232.0, 240.0, 15.0, 160.0, 0.0, 0.0, 0.0, 1.677707659657703E9, 0.0, 2023-03-01 13:54:19.657
57.0, 10606.86386905478, 14292.01832914571, 0.0, 0.0, 0.0, 0.0, 0.0, 0.0, -0.482, -0.738, 0.5, 192.0, 0.0, 0.0, 0.0, 0.0, 0.0, 0.0, 0.0, 0.0, 0.0, 1.677707659657712E9, 0.0, 2023-03-01 13:54:19.657
58.0, 10602.102947485799, 14283.502314508238, 0.0, 0.0, 0.0, 0.0, 0.0, 0.0, -0.482, -0.738, 0.5, 192.0, 0.0, 0.0, 0.0, 0.0, 0.0, 0.0, 0.0, 0.0, 0.0, 1.677707659665259E9, 0.0, 2023-03-01 13:54:19.665
59.0, 10597.833764294835, 14283.189390085863, 0.0, 0.0, 0.0, 0.0, 0.0, 0.0, -0.482, -0.738, 0.5, 192.0, 0.0, 0.0, 0.0, 0.0, 0.0, 0.0, 0.0, 0.0, 0.0, 1.677707659665275E9, 0.0, 2023-03-01 13:54:19.665
60.0, 10616.117491259276, 14295.058166391633, 0.0, 0.0, 0.0, 0.0, 0.0, 0.0, -0.482, -0.738, 0.5, 192.0, 0.0, 0.0, 0.0, 0.0, 0.0, 0.0, 0.0, 0.0, 0.0, 1.677707659673223E9, 0.0, 2023-03-01 13:54:19.673
61.0, 10612.027122023956, 14282.474134263293, 0.0, 0.0, 0.0, 0.0, 0.0, 0.0, -0.482, -0.738, 0.5, 192.0, 0.0, 0.0, 0.0, 0.0, 0.0, 0.0, 0.0, 0.0, 0.0, 1.677707659673239E9, 0.0, 2023-03-01 13:54:19.673
62.0, 10592.75991830348, 14270.15832306842, 0.0, 0.0, 0.0, 0.0, 0.0, 0.0, -0.482, -0.738, 0.5, 192.0, 0.0, 0.0, 0.0, 0.0, 0.0, 0.0, 0.0, 0.0, 0.0, 1.677707659681285E9, 0.0, 2023-03-01 13:54:19.681
63.0, 10598.772537561958, 14280.842456918057, 0.0, 0.0, 0.0, 0.0, 0.0, 0.0, -0.482, -0.738, 0.5, 192.0, 0.0, 0.0, 0.0, 0.0, 0.0, 0.0, 0.0, 0.0, 0.0, 1.677707659681301E9, 0.0, 2023-03-01 13:54:19.681
64.0, 10600.605380607294, 14276.014480115711, 0.0, 0.0, 0.0, 0.0, 0.0, 0.0, -0.482, -0.738, 0.5, 192.0, 0.0, 0.0, 0.0, 0.0, 0.0, 0.0, 0.0, 0.0, 0.0, 1.67770765968773E9, 0.0, 2023-03-01 13:54:19.687
65.0, 10609.546078389416, 14285.73748895377, 0.0, 0.0, 0.0, 0.0, 0.0, 0.0, -0.482, -0.738, 0.5, 192.0, 0.0, 0.0, 0.0, 0.0, 0.0, 0.0, 0.0, 0.0, 0.0, 1.677707659687767E9, 0.0, 2023-03-01 13:54:19.687
66.0, 10611.043645267922, 14287.749145954747, 0.0, 0.0, 0.0, 0.0, 0.0, 0.0, -0.48, -0.736, 0.498, 192.0, 241.0, 0.0, 233.0, 0.0, 15.0, 144.0, 0.0, 0.0, 0.0, 1.677707659695836E9, 0.0, 2023-03-01 13:54:19.695
67.0, 10601.454746896596, 14274.226340559286, 0.0, 0.0, 0.0, 0.0, 0.0, 0.0, -0.48, -0.736, 0.498, 192.0, 0.0, 0.0, 0.0, 0.0, 0.0, 0.0, 0.0, 0.0, 0.0, 1.67770765969585E9, 0.0, 2023-03-01 13:54:19.695
68.0, 10601.611209107783, 14273.06404984761, 0.0, 0.0, 0.0, 0.0, 0.0, 0.0, -0.48, -0.736, 0.498, 192.0, 0.0, 0.0, 0.0, 0.0, 0.0, 0.0, 0.0, 0.0, 0.0, 1.67770765970379E9, 0.0, 2023-03-01 13:54:19.703
69.0, 10606.595648121316, 14283.122334852498, 0.0, 0.0, 0.0, 0.0, 0.0, 0.0, -0.48, -0.736, 0.498, 192.0, 0.0, 0.0, 0.0, 0.0, 0.0, 0.0, 0.0, 0.0, 0.0, 1.6777076597038E9, 0.0, 2023-03-01 13:54:19.703
70.0, 10608.428491166651, 14285.603378487038, 0.0, 0.0, 0.0, 0.0, 0.0, 0.0, -0.48, -0.736, 0.498, 192.0, 0.0, 0.0, 0.0, 0.0, 0.0, 0.0, 0.0, 0.0, 0.0, 1.677707659710869E9, 0.0, 2023-03-01 13:54:19.710
71.0, 10601.81237480788, 14275.008651615222, 0.0, 0.0, 0.0, 0.0, 0.0, 0.0, -0.48, -0.736, 0.498, 192.0, 0.0, 0.0, 0.0, 0.0, 0.0, 0.0, 0.0, 0.0, 0.0, 1.677707659717397E9, 0.0, 2023-03-01 13:54:19.717
72.0, 10601.454746896596, 14279.769573184201, 0.0, 0.0, 0.0, 0.0, 0.0, 0.0, -0.48, -0.736, 0.498, 192.0, 0.0, 0.0, 0.0, 0.0, 0.0, 0.0, 0.0, 0.0, 0.0, 1.677707659717415E9, 0.0, 2023-03-01 13:54:19.717
73.0, 10612.38474993524, 14289.40317504444, 0.0, 0.0, 0.0, 0.0, 0.0, 0.0, -0.48, -0.736, 0.498, 192.0, 0.0, 0.0, 0.0, 0.0, 0.0, 0.0, 0.0, 0.0, 0.0, 1.677707659725443E9, 0.0, 2023-03-01 13:54:19.725
74.0, 10616.542174403927, 14291.68305297888, 0.0, 0.0, 0.0, 0.0, 0.0, 0.0, -0.48, -0.736, 0.498, 192.0, 0.0, 0.0, 0.0, 0.0, 0.0, 0.0, 0.0, 0.0, 0.0, 1.67770765972546E9, 0.0, 2023-03-01 13:54:19.725
75.0, 10612.921191802168, 14289.067898877609, 0.0, 0.0, 0.0, 0.0, 0.0, 0.0, -0.48, -0.736, 0.498, 192.0, 0.0, 0.0, 0.0, 0.0, 0.0, 0.0, 0.0, 0.0, 0.0, 1.677707659733511E9, 0.0, 2023-03-01 13:54:19.733
76.0, 10614.9552005476, 14290.073727378098, 0.0, 0.0, 0.0, 0.0, 0.0, 0.0, -0.484, -0.738, 0.504, 192.0, 240.0, 224.0, 232.0, 240.0, 15.0, 192.0, 0.0, 0.0, 0.0, 1.677707659733524E9, 0.0, 2023-03-01 13:54:19.733
77.0, 10611.401273179206, 14284.418736030906, 0.0, 0.0, 0.0, 0.0, 0.0, 0.0, -0.484, -0.738, 0.504, 192.0, 0.0, 0.0, 0.0, 0.0, 0.0, 0.0, 0.0, 0.0, 0.0, 1.677707659740582E9, 0.0, 2023-03-01 13:54:19.740
78.0, 10610.842479567824, 14279.747221439746, 0.0, 0.0, 0.0, 0.0, 0.0, 0.0, -0.484, -0.738, 0.504, 192.0, 0.0, 0.0, 0.0, 0.0, 0.0, 0.0, 0.0, 0.0, 0.0, 1.677707659740593E9, 0.0, 2023-03-01 13:54:19.740
79.0, 10603.734624831037, 14276.819142916102, 0.0, 0.0, 0.0, 0.0, 0.0, 0.0, -0.484, -0.738, 0.504, 192.0, 0.0, 0.0, 0.0, 0.0, 0.0, 0.0, 0.0, 0.0, 0.0, 1.677707659748034E9, 0.0, 2023-03-01 13:54:19.748
80.0, 10605.589819620827, 14283.16703834141, 0.0, 0.0, 0.0, 0.0, 0.0, 0.0, -0.484, -0.738, 0.504, 192.0, 0.0, 0.0, 0.0, 0.0, 0.0, 0.0, 0.0, 0.0, 0.0, 1.677707659748042E9, 0.0, 2023-03-01 13:54:19.748
81.0, 10609.501374900507, 14286.810372687623, 0.0, 0.0, 0.0, 0.0, 0.0, 0.0, -0.484, -0.738, 0.504, 192.0, 0.0, 0.0, 0.0, 0.0, 0.0, 0.0, 0.0, 0.0, 0.0, 1.677707659756194E9, 0.0, 2023-03-01 13:54:19.756
82.0, 10610.618962123272, 14283.234093574774, 0.0, 0.0, 0.0, 0.0, 0.0, 0.0, -0.484, -0.738, 0.504, 192.0, 0.0, 0.0, 0.0, 0.0, 0.0, 0.0, 0.0, 0.0, 0.0, 1.677707659756242E9, 0.0, 2023-03-01 13:54:19.756
83.0, 10608.33908418883, 14280.976567384789, 0.0, 0.0, 0.0, 0.0, 0.0, 0.0, -0.484, -0.738, 0.504, 192.0, 0.0, 0.0, 0.0, 0.0, 0.0, 0.0, 0.0, 0.0, 0.0, 1.67770765976427E9, 0.0, 2023-03-01 13:54:19.764
84.0, 10602.728796330548, 14274.405154514929, 0.0, 0.0, 0.0, 0.0, 0.0, 0.0, -0.484, -0.738, 0.504, 192.0, 0.0, 0.0, 0.0, 0.0, 0.0, 0.0, 0.0, 0.0, 0.0, 1.677707659764289E9, 0.0, 2023-03-01 13:54:19.764
85.0, 10606.819165565868, 14279.099020850543, 0.0, 0.0, 0.0, 0.0, 0.0, 0.0, -0.484, -0.738, 0.504, 192.0, 0.0, 0.0, 0.0, 0.0, 0.0, 0.0, 0.0, 0.0, 0.0, 1.677707659770247E9, 0.0, 2023-03-01 13:54:19.770
86.0, 10609.121395244765, 14281.155381340432, 0.0, 0.0, 0.0, 0.0, 0.0, 0.0, -0.488, -0.734, 0.506, 192.0, 240.0, 192.0, 233.0, 16.0, 15.0, 208.0, 0.0, 0.0, 0.0, 1.677707659777851E9, 0.0, 2023-03-01 13:54:19.777
87.0, 10603.95814227559, 14274.069878348098, 0.0, 0.0, 0.0, 0.0, 0.0, 0.0, -0.488, -0.734, 0.506, 192.0, 0.0, 0.0, 0.0, 0.0, 0.0, 0.0, 0.0, 0.0, 0.0, 1.677707659777865E9, 0.0, 2023-03-01 13:54:19.777
88.0, 10597.587895105828, 14271.00768935772, 0.0, 0.0, 0.0, 0.0, 0.0, 0.0, -0.488, -0.734, 0.506, 192.0, 0.0, 0.0, 0.0, 0.0, 0.0, 0.0, 0.0, 0.0, 0.0, 1.677707659785812E9, 0.0, 2023-03-01 13:54:19.785
89.0, 10599.532496873439, 14274.561616726116, 0.0, 0.0, 0.0, 0.0, 0.0, 0.0, -0.488, -0.734, 0.506, 192.0, 0.0, 0.0, 0.0, 0.0, 0.0, 0.0, 0.0, 0.0, 0.0, 1.677707659785823E9, 0.0, 2023-03-01 13:54:19.785
90.0, 10608.003808022, 14281.11067785152, 0.0, 0.0, 0.0, 0.0, 0.0, 0.0, -0.488, -0.734, 0.506, 192.0, 0.0, 0.0, 0.0, 0.0, 0.0, 0.0, 0.0, 0.0, 0.0, 1.677707659793926E9, 0.0, 2023-03-01 13:54:19.793
91.0, 10611.110700501287, 14276.237997560263, 0.0, 0.0, 0.0, 0.0, 0.0, 0.0, -0.488, -0.734, 0.506, 192.0, 0.0, 0.0, 0.0, 0.0, 0.0, 0.0, 0.0, 0.0, 0.0, 1.677707659793945E9, 0.0, 2023-03-01 13:54:19.793
92.0, 10609.456671411595, 14273.935767881367, 0.0, 0.0, 0.0, 0.0, 0.0, 0.0, -0.488, -0.734, 0.506, 192.0, 0.0, 0.0, 0.0, 0.0, 0.0, 0.0, 0.0, 0.0, 0.0, 1.677707659800409E9, 0.0, 2023-03-01 13:54:19.800
93.0, 10605.14278473172, 14273.354622525529, 0.0, 0.0, 0.0, 0.0, 0.0, 0.0, -0.488, -0.734, 0.506, 192.0, 0.0, 0.0, 0.0, 0.0, 0.0, 0.0, 0.0, 0.0, 0.0, 1.677707659800425E9, 0.0, 2023-03-01 13:54:19.800
94.0, 10609.926058045157, 14276.305052793628, 0.0, 0.0, 0.0, 0.0, 0.0, 0.0, -0.488, -0.734, 0.506, 192.0, 0.0, 0.0, 0.0, 0.0, 0.0, 0.0, 0.0, 0.0, 0.0, 1.677707659808413E9, 0.0, 2023-03-01 13:54:19.808
95.0, 10610.23898246753, 14273.421677758895, 0.0, 0.0, 0.0, 0.0, 0.0, 0.0, -0.488, -0.734, 0.506, 192.0, 0.0, 0.0, 0.0, 0.0, 0.0, 0.0, 0.0, 0.0, 0.0, 1.677707659808431E9, 0.0, 2023-03-01 13:54:19.808
96.0, 10611.758901090492, 14273.198160314341, 0.0, 0.0, 0.0, 0.0, 0.0, 0.0, -0.49, -0.74, 0.498, 192.0, 240.0, 176.0, 232.0, 224.0, 15.0, 144.0, 0.0, 0.0, 0.0, 1.677707659816507E9, 0.0, 2023-03-01 13:54:19.816
97.0, 10602.974665519556, 14270.471247490794, 0.0, 0.0, 0.0, 0.0, 0.0, 0.0, -0.49, -0.74, 0.498, 192.0, 0.0, 0.0, 0.0, 0.0, 0.0, 0.0, 0.0, 0.0, 0.0, 1.677707659816523E9, 0.0, 2023-03-01 13:54:19.816
98.0, 10611.021293523467, 14279.613110973014, 0.0, 0.0, 0.0, 0.0, 0.0, 0.0, -0.49, -0.74, 0.498, 192.0, 0.0, 0.0, 0.0, 0.0, 0.0, 0.0, 0.0, 0.0, 0.0, 1.67770765982309E9, 0.0, 2023-03-01 13:54:19.823
99.0, 10619.00086629401, 14284.865770920012, 0.0, 0.0, 0.0, 0.0, 0.0, 0.0, -0.49, -0.74, 0.498, 192.0, 0.0, 0.0, 0.0, 0.0, 0.0, 0.0, 0.0, 0.0, 0.0, 1.677707659823135E9, 0.0, 2023-03-01 13:54:19.823
100.0, 10607.91440104418, 14275.142762081954, 0.0, 0.0, 0.0, 0.0, 0.0, 0.0, -0.49, -0.74, 0.498, 192.0, 0.0, 0.0, 0.0, 0.0, 0.0, 0.0, 0.0, 0.0, 0.0, 1.677707659830108E9, 0.0, 2023-03-01 13:54:19.830
101.0, 10601.410043407684, 14271.834703902568, 0.0, 0.0, 0.0, 0.0, 0.0, 0.0, -0.49, -0.74, 0.498, 192.0, 0.0, 0.0, 0.0, 0.0, 0.0, 0.0, 0.0, 0.0, 0.0, 1.677707659838084E9, 0.0, 2023-03-01 13:54:19.838
102.0, 10605.500412643005, 14270.806523657624, 0.0, 0.0, 0.0, 0.0, 0.0, 0.0, -0.49, -0.74, 0.498, 192.0, 0.0, 0.0, 0.0, 0.0, 0.0, 0.0, 0.0, 0.0, 0.0, 1.677707659838112E9, 0.0, 2023-03-01 13:54:19.838
103.0, 10606.215668465575, 14267.9678521118, 0.0, 0.0, 0.0, 0.0, 0.0, 0.0, -0.49, -0.74, 0.498, 192.0, 0.0, 0.0, 0.0, 0.0, 0.0, 0.0, 0.0, 0.0, 0.0, 1.677707659846302E9, 0.0, 2023-03-01 13:54:19.846
104.0, 10598.996055006512, 14263.25163403173, 0.0, 0.0, 0.0, 0.0, 0.0, 0.0, -0.49, -0.74, 0.498, 192.0, 0.0, 0.0, 0.0, 0.0, 0.0, 0.0, 0.0, 0.0, 0.0, 1.677707659846325E9, 0.0, 2023-03-01 13:54:19.846
105.0, 10596.917342772167, 14261.709363664313, 0.0, 0.0, 0.0, 0.0, 0.0, 0.0, -0.49, -0.74, 0.498, 192.0, 0.0, 0.0, 0.0, 0.0, 0.0, 0.0, 0.0, 0.0, 0.0, 1.677707659853303E9, 0.0, 2023-03-01 13:54:19.853
106.0, 10600.001883507, 14261.999936342232, 0.0, 0.0, 0.0, 0.0, 0.0, 0.0, -0.49, -0.74, 0.498, 192.0, 240.0, 176.0, 232.0, 224.0, 15.0, 144.0, 0.0, 0.0, 0.0, 1.677707659853321E9, 0.0, 2023-03-01 13:54:19.853
107.0, 10604.829860309346, 14266.023250344188, 0.0, 0.0, 0.0, 0.0, 0.0, 0.0, -0.49, -0.74, 0.498, 192.0, 0.0, 0.0, 0.0, 0.0, 0.0, 0.0, 0.0, 0.0, 0.0, 1.677707659860685E9, 0.0, 2023-03-01 13:54:19.860
108.0, 10605.232191709541, 14269.10779107902, 0.0, 0.0, 0.0, 0.0, 0.0, 0.0, -0.49, -0.74, 0.498, 192.0, 0.0, 0.0, 0.0, 0.0, 0.0, 0.0, 0.0, 0.0, 0.0, 1.677707659860701E9, 0.0, 2023-03-01 13:54:19.860
109.0, 10601.745319574515, 14268.906625378922, 0.0, 0.0, 0.0, 0.0, 0.0, 0.0, -0.49, -0.74, 0.498, 192.0, 0.0, 0.0, 0.0, 0.0, 0.0, 0.0, 0.0, 0.0, 0.0, 1.677707659870115E9, 0.0, 2023-03-01 13:54:19.870
110.0, 10607.713235344081, 14274.472209748294, 0.0, 0.0, 0.0, 0.0, 0.0, 0.0, -0.49, -0.74, 0.498, 192.0, 0.0, 0.0, 0.0, 0.0, 0.0, 0.0, 0.0, 0.0, 0.0, 1.677707659870134E9, 0.0, 2023-03-01 13:54:19.870
111.0, 10634.28945950144, 14289.760802955725, 0.0, 0.0, 0.0, 0.0, 0.0, 0.0, -0.49, -0.74, 0.498, 192.0, 0.0, 0.0, 0.0, 0.0, 0.0, 0.0, 0.0, 0.0, 0.0, 1.677707659877256E9, 0.0, 2023-03-01 13:54:19.877
112.0, 10640.860872371302, 14301.495468794761, 0.0, 0.0, 0.0, 0.0, 0.0, 0.0, -0.49, -0.74, 0.498, 192.0, 0.0, 0.0, 0.0, 0.0, 0.0, 0.0, 0.0, 0.0, 0.0, 1.677707659877264E9, 0.0, 2023-03-01 13:54:19.877
113.0, 10602.23705795253, 14281.602416229536, 0.0, 0.0, 0.0, 0.0, 0.0, 0.0, -0.49, -0.74, 0.498, 192.0, 0.0, 0.0, 0.0, 0.0, 0.0, 0.0, 0.0, 0.0, 0.0, 1.677707659883608E9, 0.0, 2023-03-01 13:54:19.883
114.0, 10582.478115854039, 14259.340078752051, 0.0, 0.0, 0.0, 0.0, 0.0, 0.0, -0.49, -0.74, 0.498, 192.0, 0.0, 0.0, 0.0, 0.0, 0.0, 0.0, 0.0, 0.0, 0.0, 1.67770765988364E9, 0.0, 2023-03-01 13:54:19.883
115.0, 10598.817241050869, 14272.393497513951, 0.0, 0.0, 0.0, 0.0, 0.0, 0.0, -0.49, -0.74, 0.498, 192.0, 0.0, 0.0, 0.0, 0.0, 0.0, 0.0, 0.0, 0.0, 0.0, 1.677707659890269E9, 0.0, 2023-03-01 13:54:19.890
116.0, 10604.941619031622, 14282.183561585374, 0.0, 0.0, 0.0, 0.0, 0.0, 0.0, -0.488, -0.734, 0.504, 192.0, 240.0, 192.0, 233.0, 16.0, 15.0, 192.0, 0.0, 0.0, 0.0, 1.677707659890332E9, 0.0, 2023-03-01 13:54:19.890
117.0, 10594.793927048913, 14279.25548306173, 0.0, 0.0, 0.0, 0.0, 0.0, 0.0, -0.488, -0.734, 0.504, 192.0, 0.0, 0.0, 0.0, 0.0, 0.0, 0.0, 0.0, 0.0, 0.0, 1.677707659898377E9, 0.0, 2023-03-01 13:54:19.898
118.0, 10585.47324961105, 14278.026137116687, 0.0, 0.0, 0.0, 0.0, 0.0, 0.0, -0.488, -0.734, 0.504, 192.0, 0.0, 0.0, 0.0, 0.0, 0.0, 0.0, 0.0, 0.0, 0.0, 1.677707659905431E9, 0.0, 2023-03-01 13:54:19.905
119.0, 10592.916380514667, 14280.887160406966, 0.0, 0.0, 0.0, 0.0, 0.0, 0.0, -0.488, -0.734, 0.504, 192.0, 0.0, 0.0, 0.0, 0.0, 0.0, 0.0, 0.0, 0.0, 0.0, 1.677707659905444E9, 0.0, 2023-03-01 13:54:19.905
120.0, 10598.884296284235, 14282.183561585374, 0.0, 0.0, 0.0, 0.0, 0.0, 0.0, -0.488, -0.734, 0.504, 192.0, 0.0, 0.0, 0.0, 0.0, 0.0, 0.0, 0.0, 0.0, 0.0, 1.67770765991302E9, 0.0, 2023-03-01 13:54:19.913
121.0, 10591.441165380618, 14279.747221439746, 0.0, 0.0, 0.0, 0.0, 0.0, 0.0, -0.488, -0.734, 0.504, 192.0, 0.0, 0.0, 0.0, 0.0, 0.0, 0.0, 0.0, 0.0, 0.0, 1.677707659913035E9, 0.0, 2023-03-01 13:54:19.913
122.0, 10599.24192419552, 14286.9221314099, 0.0, 0.0, 0.0, 0.0, 0.0, 0.0, -0.488, -0.734, 0.504, 192.0, 0.0, 0.0, 0.0, 0.0, 0.0, 0.0, 0.0, 0.0, 0.0, 1.677707659920968E9, 0.0, 2023-03-01 13:54:19.920
123.0, 10607.892049299724, 14290.833686689579, 0.0, 0.0, 0.0, 0.0, 0.0, 0.0, -0.488, -0.734, 0.504, 192.0, 0.0, 0.0, 0.0, 0.0, 0.0, 0.0, 0.0, 0.0, 0.0, 1.677707659920977E9, 0.0, 2023-03-01 13:54:19.920
124.0, 10608.987284778033, 14288.665567477414, 0.0, 0.0, 0.0, 0.0, 0.0, 0.0, -0.488, -0.734, 0.504, 192.0, 0.0, 0.0, 0.0, 0.0, 0.0, 0.0, 0.0, 0.0, 0.0, 1.677707659929061E9, 0.0, 2023-03-01 13:54:19.929
125.0, 10608.71906384457, 14286.25157907624, 0.0, 0.0, 0.0, 0.0, 0.0, 0.0, -0.488, -0.734, 0.504, 192.0, 0.0, 0.0, 0.0, 0.0, 0.0, 0.0, 0.0, 0.0, 0.0, 1.677707659929077E9, 0.0, 2023-03-01 13:54:19.929
126.0, 10605.187488220632, 14285.581026742582, 0.0, 0.0, 0.0, 0.0, 0.0, 0.0, -0.492, -0.736, 0.5, 192.0, 240.0, 160.0, 233.0, 0.0, 15.0, 160.0, 0.0, 0.0, 0.0, 1.677707659935575E9, 0.0, 2023-03-01 13:54:19.935
127.0, 10603.555810875394, 14283.524666252693, 0.0, 0.0, 0.0, 0.0, 0.0, 0.0, -0.492, -0.736, 0.5, 192.0, 0.0, 0.0, 0.0, 0.0, 0.0, 0.0, 0.0, 0.0, 0.0, 1.677707659935622E9, 0.0, 2023-03-01 13:54:19.935
128.0, 10603.488755642027, 14283.63642497497, 0.0, 0.0, 0.0, 0.0, 0.0, 0.0, -0.492, -0.736, 0.5, 192.0, 0.0, 0.0, 0.0, 0.0, 0.0, 0.0, 0.0, 0.0, 0.0, 1.677707659943677E9, 0.0, 2023-03-01 13:54:19.943
129.0, 10605.612171365283, 14281.937692396366, 0.0, 0.0, 0.0, 0.0, 0.0, 0.0, -0.492, -0.736, 0.5, 192.0, 0.0, 0.0, 0.0, 0.0, 0.0, 0.0, 0.0, 0.0, 0.0, 1.677707659943704E9, 0.0, 2023-03-01 13:54:19.943
130.0, 10601.790023063424, 14277.601453972036, 0.0, 0.0, 0.0, 0.0, 0.0, 0.0, -0.492, -0.736, 0.5, 192.0, 0.0, 0.0, 0.0, 0.0, 0.0, 0.0, 0.0, 0.0, 0.0, 1.677707659951628E9, 0.0, 2023-03-01 13:54:19.951
131.0, 10608.428491166651, 14285.178695342387, 0.0, 0.0, 0.0, 0.0, 0.0, 0.0, -0.492, -0.736, 0.5, 192.0, 0.0, 0.0, 0.0, 0.0, 0.0, 0.0, 0.0, 0.0, 0.0, 1.677707659951643E9, 0.0, 2023-03-01 13:54:19.951
132.0, 10622.465386684584, 14295.147573369453, 0.0, 0.0, 0.0, 0.0, 0.0, 0.0, -0.492, -0.736, 0.5, 192.0, 0.0, 0.0, 0.0, 0.0, 0.0, 0.0, 0.0, 0.0, 0.0, 1.677707659958805E9, 0.0, 2023-03-01 13:54:19.958
133.0, 10612.071825512867, 14285.849247676046, 0.0, 0.0, 0.0, 0.0, 0.0, 0.0, -0.492, -0.736, 0.5, 192.0, 0.0, 0.0, 0.0, 0.0, 0.0, 0.0, 0.0, 0.0, 0.0, 1.677707659965255E9, 0.0, 2023-03-01 13:54:19.965
134.0, 10611.58008713485, 14289.537285511171, 0.0, 0.0, 0.0, 0.0, 0.0, 0.0, -0.492, -0.736, 0.5, 192.0, 0.0, 0.0, 0.0, 0.0, 0.0, 0.0, 0.0, 0.0, 0.0, 1.677707659965267E9, 0.0, 2023-03-01 13:54:19.965
135.0, 10616.609229637294, 14295.59460825856, 0.0, 0.0, 0.0, 0.0, 0.0, 0.0, -0.492, -0.736, 0.5, 192.0, 0.0, 0.0, 0.0, 0.0, 0.0, 0.0, 0.0, 0.0, 0.0, 1.677707659973275E9, 0.0, 2023-03-01 13:54:19.973
136.0, 10621.191337250631, 14297.74037572627, 0.0, 0.0, 0.0, 0.0, 0.0, 0.0, -0.492, -0.736, 0.5, 192.0, 0.0, 0.0, 0.0, 0.0, 0.0, 0.0, 0.0, 0.0, 0.0, 1.677707659973293E9, 0.0, 2023-03-01 13:54:19.973
137.0, 10618.710293616092, 14296.868657692512, 0.0, 0.0, 0.0, 0.0, 0.0, 0.0, -0.496, -0.736, 0.502, 192.0, 240.0, 128.0, 233.0, 0.0, 15.0, 176.0, 0.0, 0.0, 0.0, 1.677707659981285E9, 0.0, 2023-03-01 13:54:19.981
138.0, 10612.161232490687, 14293.672358235402, 0.0, 0.0, 0.0, 0.0, 0.0, 0.0, -0.496, -0.736, 0.502, 192.0, 0.0, 0.0, 0.0, 0.0, 0.0, 0.0, 0.0, 0.0, 0.0, 1.677707659981305E9, 0.0, 2023-03-01 13:54:19.981
139.0, 10612.474156913062, 14292.465364034817, 0.0, 0.0, 0.0, 0.0, 0.0, 0.0, -0.496, -0.736, 0.502, 192.0, 0.0, 0.0, 0.0, 0.0, 0.0, 0.0, 0.0, 0.0, 0.0, 1.67770765998832E9, 0.0, 2023-03-01 13:54:19.988
140.0, 10616.966857548578, 14292.77828845719, 0.0, 0.0, 0.0, 0.0, 0.0, 0.0, -0.496, -0.736, 0.502, 192.0, 0.0, 0.0, 0.0, 0.0, 0.0, 0.0, 0.0, 0.0, 0.0, 1.677707659988335E9, 0.0, 2023-03-01 13:54:19.988
141.0, 10614.709331358592, 14289.380823299984, 0.0, 0.0, 0.0, 0.0, 0.0, 0.0, -0.496, -0.736, 0.502, 192.0, 0.0, 0.0, 0.0, 0.0, 0.0, 0.0, 0.0, 0.0, 0.0, 1.677707659995879E9, 0.0, 2023-03-01 13:54:19.995
142.0, 10612.854136568802, 14290.029023889188, 0.0, 0.0, 0.0, 0.0, 0.0, 0.0, -0.496, -0.736, 0.502, 192.0, 0.0, 0.0, 0.0, 0.0, 0.0, 0.0, 0.0, 0.0, 0.0, 1.677707659995894E9, 0.0, 2023-03-01 13:54:19.995
143.0, 10614.329351702852, 14296.868657692512, 0.0, 0.0, 0.0, 0.0, 0.0, 0.0, -0.496, -0.736, 0.502, 192.0, 0.0, 0.0, 0.0, 0.0, 0.0, 0.0, 0.0, 0.0, 0.0, 1.677707660003864E9, 0.0, 2023-03-01 13:54:20.003
144.0, 10625.885203586246, 14300.713157738825, 0.0, 0.0, 0.0, 0.0, 0.0, 0.0, -0.496, -0.736, 0.502, 192.0, 0.0, 0.0, 0.0, 0.0, 0.0, 0.0, 0.0, 0.0, 0.0, 1.677707660003879E9, 0.0, 2023-03-01 13:54:20.003
145.0, 10627.829805353858, 14295.281683836185, 0.0, 0.0, 0.0, 0.0, 0.0, 0.0, -0.496, -0.736, 0.502, 192.0, 0.0, 0.0, 0.0, 0.0, 0.0, 0.0, 0.0, 0.0, 0.0, 1.677707660011899E9, 0.0, 2023-03-01 13:54:20.011
146.0, 10626.600459408815, 14302.523649039704, 0.0, 0.0, 0.0, 0.0, 0.0, 0.0, -0.496, -0.736, 0.502, 192.0, 0.0, 0.0, 0.0, 0.0, 0.0, 0.0, 0.0, 0.0, 0.0, 1.67770766001191E9, 0.0, 2023-03-01 13:54:20.011
147.0, 10627.896860587223, 14308.8268409761, 0.0, 0.0, 0.0, 0.0, 0.0, 0.0, -0.49, -0.736, 0.5, 192.0, 240.0, 176.0, 233.0, 0.0, 15.0, 160.0, 0.0, 0.0, 0.0, 1.677707660018252E9, 0.0, 2023-03-01 13:54:20.018
148.0, 10630.333200732852, 14306.055224663643, 0.0, 0.0, 0.0, 0.0, 0.0, 0.0, -0.49, -0.736, 0.5, 192.0, 0.0, 0.0, 0.0, 0.0, 0.0, 0.0, 0.0, 0.0, 0.0, 1.677707660026749E9, 0.0, 2023-03-01 13:54:20.026
149.0, 10631.786064122447, 14302.657759506435, 0.0, 0.0, 0.0, 0.0, 0.0, 0.0, -0.49, -0.736, 0.5, 192.0, 0.0, 0.0, 0.0, 0.0, 0.0, 0.0, 0.0, 0.0, 0.0, 1.677707660026768E9, 0.0, 2023-03-01 13:54:20.026
150.0, 10629.0591512989, 14297.807430959634, 0.0, 0.0, 0.0, 0.0, 0.0, 0.0, -0.49, -0.736, 0.5, 192.0, 0.0, 0.0, 0.0, 0.0, 0.0, 0.0, 0.0, 0.0, 0.0, 1.677707660032905E9, 0.0, 2023-03-01 13:54:20.032
151.0, 10626.421645453172, 14299.59557051606, 0.0, 0.0, 0.0, 0.0, 0.0, 0.0, -0.49, -0.736, 0.5, 192.0, 0.0, 0.0, 0.0, 0.0, 0.0, 0.0, 0.0, 0.0, 0.0, 1.677707660032924E9, 0.0, 2023-03-01 13:54:20.032
152.0, 10636.77050313598, 14308.692730509369, 0.0, 0.0, 0.0, 0.0, 0.0, 0.0, -0.49, -0.736, 0.5, 192.0, 0.0, 0.0, 0.0, 0.0, 0.0, 0.0, 0.0, 0.0, 0.0, 1.677707660040891E9, 0.0, 2023-03-01 13:54:20.040
153.0, 10637.038724069444, 14306.278742108196, 0.0, 0.0, 0.0, 0.0, 0.0, 0.0, -0.49, -0.736, 0.5, 192.0, 0.0, 0.0, 0.0, 0.0, 0.0, 0.0, 0.0, 0.0, 0.0, 1.677707660040906E9, 0.0, 2023-03-01 13:54:20.040
154.0, 10629.77440712147, 14300.02025366071, 0.0, 0.0, 0.0, 0.0, 0.0, 0.0, -0.49, -0.736, 0.5, 192.0, 0.0, 0.0, 0.0, 0.0, 0.0, 0.0, 0.0, 0.0, 0.0, 1.677707660049014E9, 0.0, 2023-03-01 13:54:20.049
155.0, 10627.33806697584, 14299.282646093685, 0.0, 0.0, 0.0, 0.0, 0.0, 0.0, -0.49, -0.736, 0.5, 192.0, 0.0, 0.0, 0.0, 0.0, 0.0, 0.0, 0.0, 0.0, 0.0, 1.677707660049029E9, 0.0, 2023-03-01 13:54:20.049
156.0, 10627.650991398215, 14299.617922260515, 0.0, 0.0, 0.0, 0.0, 0.0, 0.0, -0.49, -0.736, 0.5, 192.0, 0.0, 0.0, 0.0, 0.0, 0.0, 0.0, 0.0, 0.0, 0.0, 1.677707660055912E9, 0.0, 2023-03-01 13:54:20.055
157.0, 10634.982363579556, 14298.96972167131, 0.0, 0.0, 0.0, 0.0, 0.0, 0.0, -0.492, -0.742, 0.502, 192.0, 240.0, 160.0, 232.0, 208.0, 15.0, 176.0, 0.0, 0.0, 0.0, 1.677707660055926E9, 0.0, 2023-03-01 13:54:20.055
158.0, 10632.568375178382, 14297.718023981814, 0.0, 0.0, 0.0, 0.0, 0.0, 0.0, -0.492, -0.742, 0.502, 192.0, 0.0, 0.0, 0.0, 0.0, 0.0, 0.0, 0.0, 0.0, 0.0, 1.67770766006345E9, 0.0, 2023-03-01 13:54:20.063
159.0, 10618.933811060646, 14286.20687558733, 0.0, 0.0, 0.0, 0.0, 0.0, 0.0, -0.492, -0.742, 0.502, 192.0, 0.0, 0.0, 0.0, 0.0, 0.0, 0.0, 0.0, 0.0, 0.0, 1.677707660063464E9, 0.0, 2023-03-01 13:54:20.063
160.0, 10627.762750120492, 14292.934750668377, 0.0, 0.0, 0.0, 0.0, 0.0, 0.0, -0.492, -0.742, 0.502, 192.0, 0.0, 0.0, 0.0, 0.0, 0.0, 0.0, 0.0, 0.0, 0.0, 1.677707660071476E9, 0.0, 2023-03-01 13:54:20.071
161.0, 10631.33902923334, 14292.68888147937, 0.0, 0.0, 0.0, 0.0, 0.0, 0.0, -0.492, -0.742, 0.502, 192.0, 0.0, 0.0, 0.0, 0.0, 0.0, 0.0, 0.0, 0.0, 0.0, 1.677707660071493E9, 0.0, 2023-03-01 13:54:20.071
162.0, 10625.974610564066, 14295.818125703112, 0.0, 0.0, 0.0, 0.0, 0.0, 0.0, -0.492, -0.742, 0.502, 192.0, 0.0, 0.0, 0.0, 0.0, 0.0, 0.0, 0.0, 0.0, 0.0, 1.677707660078572E9, 0.0, 2023-03-01 13:54:20.078
163.0, 10614.91049705869, 14291.213666345318, 0.0, 0.0, 0.0, 0.0, 0.0, 0.0, -0.492, -0.742, 0.502, 192.0, 0.0, 0.0, 0.0, 0.0, 0.0, 0.0, 0.0, 0.0, 0.0, 1.677707660085598E9, 0.0, 2023-03-01 13:54:20.085
164.0, 10621.14663376172, 14292.286550079174, 0.0, 0.0, 0.0, 0.0, 0.0, 0.0, -0.492, -0.742, 0.502, 192.0, 0.0, 0.0, 0.0, 0.0, 0.0, 0.0, 0.0, 0.0, 0.0, 1.677707660085614E9, 0.0, 2023-03-01 13:54:20.085
165.0, 10624.924078574668, 14293.001805901744, 0.0, 0.0, 0.0, 0.0, 0.0, 0.0, -0.492, -0.742, 0.502, 192.0, 0.0, 0.0, 0.0, 0.0, 0.0, 0.0, 0.0, 0.0, 0.0, 1.677707660093076E9, 0.0, 2023-03-01 13:54:20.093
166.0, 10623.091235529333, 14293.225323346296, 0.0, 0.0, 0.0, 0.0, 0.0, 0.0, -0.492, -0.742, 0.502, 192.0, 0.0, 0.0, 0.0, 0.0, 0.0, 0.0, 0.0, 0.0, 0.0, 1.677707660093104E9, 0.0, 2023-03-01 13:54:20.093
167.0, 10622.353627962308, 14292.040680890166, 0.0, 0.0, 0.0, 0.0, 0.0, 0.0, -0.488, -0.738, 0.502, 192.0, 240.0, 192.0, 232.0, 240.0, 15.0, 176.0, 0.0, 0.0, 0.0, 1.677707660101065E9, 0.0, 2023-03-01 13:54:20.101
168.0, 10622.957125062601, 14296.913361181423, 0.0, 0.0, 0.0, 0.0, 0.0, 0.0, -0.488, -0.738, 0.502, 192.0, 0.0, 0.0, 0.0, 0.0, 0.0, 0.0, 0.0, 0.0, 0.0, 1.677707660101075E9, 0.0, 2023-03-01 13:54:20.101
169.0, 10628.72387513207, 14301.227247861296, 0.0, 0.0, 0.0, 0.0, 0.0, 0.0, -0.488, -0.738, 0.502, 192.0, 0.0, 0.0, 0.0, 0.0, 0.0, 0.0, 0.0, 0.0, 0.0, 1.677707660109601E9, 0.0, 2023-03-01 13:54:20.109
170.0, 10631.920174589179, 14296.555733270137, 0.0, 0.0, 0.0, 0.0, 0.0, 0.0, -0.488, -0.738, 0.502, 192.0, 0.0, 0.0, 0.0, 0.0, 0.0, 0.0, 0.0, 0.0, 0.0, 1.67770766010962E9, 0.0, 2023-03-01 13:54:20.109
171.0, 10629.953221077112, 14299.349701327052, 0.0, 0.0, 0.0, 0.0, 0.0, 0.0, -0.488, -0.738, 0.502, 192.0, 0.0, 0.0, 0.0, 0.0, 0.0, 0.0, 0.0, 0.0, 0.0, 1.677707660115836E9, 0.0, 2023-03-01 13:54:20.115
172.0, 10616.944505804124, 14288.553808755138, 0.0, 0.0, 0.0, 0.0, 0.0, 0.0, -0.488, -0.738, 0.502, 192.0, 0.0, 0.0, 0.0, 0.0, 0.0, 0.0, 0.0, 0.0, 0.0, 1.677707660115855E9, 0.0, 2023-03-01 13:54:20.115
173.0, 10625.415816952684, 14297.203933859342, 0.0, 0.0, 0.0, 0.0, 0.0, 0.0, -0.488, -0.738, 0.502, 192.0, 0.0, 0.0, 0.0, 0.0, 0.0, 0.0, 0.0, 0.0, 0.0, 1.677707660123745E9, 0.0, 2023-03-01 13:54:20.123
174.0, 10629.617944910282, 14297.718023981814, 0.0, 0.0, 0.0, 0.0, 0.0, 0.0, -0.488, -0.738, 0.502, 192.0, 0.0, 0.0, 0.0, 0.0, 0.0, 0.0, 0.0, 0.0, 0.0, 1.677707660123762E9, 0.0, 2023-03-01 13:54:20.123
175.0, 10625.996962308522, 14292.219494845807, 0.0, 0.0, 0.0, 0.0, 0.0, 0.0, -0.488, -0.738, 0.502, 192.0, 0.0, 0.0, 0.0, 0.0, 0.0, 0.0, 0.0, 0.0, 0.0, 1.677707660131807E9, 0.0, 2023-03-01 13:54:20.131
176.0, 10626.1087210308, 14292.06303263462, 0.0, 0.0, 0.0, 0.0, 0.0, 0.0, -0.488, -0.738, 0.502, 192.0, 0.0, 0.0, 0.0, 0.0, 0.0, 0.0, 0.0, 0.0, 0.0, 1.677707660131823E9, 0.0, 2023-03-01 13:54:20.131
177.0, 10633.842424612336, 14296.39927105895, 0.0, 0.0, 0.0, 0.0, 0.0, 0.0, -0.492, -0.732, 0.506, 192.0, 240.0, 160.0, 233.0, 32.0, 15.0, 208.0, 0.0, 0.0, 0.0, 1.677707660138838E9, 0.0, 2023-03-01 13:54:20.138
178.0, 10635.652915913215, 14296.533381525682, 0.0, 0.0, 0.0, 0.0, 0.0, 0.0, -0.492, -0.732, 0.506, 192.0, 0.0, 0.0, 0.0, 0.0, 0.0, 0.0, 0.0, 0.0, 0.0, 1.677707660138854E9, 0.0, 2023-03-01 13:54:20.138
179.0, 10631.853119355812, 14293.53824776867, 0.0, 0.0, 0.0, 0.0, 0.0, 0.0, -0.492, -0.732, 0.506, 192.0, 0.0, 0.0, 0.0, 0.0, 0.0, 0.0, 0.0, 0.0, 0.0, 1.677707660145396E9, 0.0, 2023-03-01 13:54:20.145
180.0, 10629.975572821568, 14289.49258202226, 0.0, 0.0, 0.0, 0.0, 0.0, 0.0, -0.492, -0.732, 0.506, 192.0, 0.0, 0.0, 0.0, 0.0, 0.0, 0.0, 0.0, 0.0, 0.0, 1.67770766015477E9, 0.0, 2023-03-01 13:54:20.154
181.0, 10633.328334489863, 14291.660701234425, 0.0, 0.0, 0.0, 0.0, 0.0, 0.0, -0.492, -0.732, 0.506, 192.0, 0.0, 0.0, 0.0, 0.0, 0.0, 0.0, 0.0, 0.0, 0.0, 1.677707660154791E9, 0.0, 2023-03-01 13:54:20.154
182.0, 10635.027067068466, 14294.834648947079, 0.0, 0.0, 0.0, 0.0, 0.0, 0.0, -0.492, -0.732, 0.506, 192.0, 0.0, 0.0, 0.0, 0.0, 0.0, 0.0, 0.0, 0.0, 0.0, 1.677707660161489E9, 0.0, 2023-03-01 13:54:20.161
183.0, 10633.440093212139, 14288.553808755138, 0.0, 0.0, 0.0, 0.0, 0.0, 0.0, -0.492, -0.732, 0.506, 192.0, 0.0, 0.0, 0.0, 0.0, 0.0, 0.0, 0.0, 0.0, 0.0, 1.677707660161523E9, 0.0, 2023-03-01 13:54:20.161
184.0, 10626.667514642182, 14281.647119718447, 0.0, 0.0, 0.0, 0.0, 0.0, 0.0, -0.492, -0.732, 0.506, 192.0, 0.0, 0.0, 0.0, 0.0, 0.0, 0.0, 0.0, 0.0, 0.0, 1.677707660168027E9, 0.0, 2023-03-01 13:54:20.168
185.0, 10630.959049577601, 14285.782192442679, 0.0, 0.0, 0.0, 0.0, 0.0, 0.0, -0.492, -0.732, 0.506, 192.0, 0.0, 0.0, 0.0, 0.0, 0.0, 0.0, 0.0, 0.0, 0.0, 1.677707660168047E9, 0.0, 2023-03-01 13:54:20.168
186.0, 10632.926003089668, 14282.988224385766, 0.0, 0.0, 0.0, 0.0, 0.0, 0.0, -0.492, -0.732, 0.506, 192.0, 0.0, 0.0, 0.0, 0.0, 0.0, 0.0, 0.0, 0.0, 0.0, 1.67770766017604E9, 0.0, 2023-03-01 13:54:20.176
187.0, 10629.685000143649, 14281.714174951814, 0.0, 0.0, 0.0, 0.0, 0.0, 0.0, -0.488, -0.736, 0.508, 192.0, 240.0, 192.0, 233.0, 0.0, 15.0, 224.0, 0.0, 0.0, 0.0, 1.677707660176055E9, 0.0, 2023-03-01 13:54:20.176
188.0, 10625.259354741496, 14282.854113919035, 0.0, 0.0, 0.0, 0.0, 0.0, 0.0, -0.488, -0.736, 0.508, 192.0, 0.0, 0.0, 0.0, 0.0, 0.0, 0.0, 0.0, 0.0, 0.0, 1.677707660184127E9, 0.0, 2023-03-01 13:54:20.184
189.0, 10625.751093119514, 14279.188427828363, 0.0, 0.0, 0.0, 0.0, 0.0, 0.0, -0.488, -0.736, 0.508, 192.0, 0.0, 0.0, 0.0, 0.0, 0.0, 0.0, 0.0, 0.0, 0.0, 1.677707660184139E9, 0.0, 2023-03-01 13:54:20.184
190.0, 10633.283631000952, 14282.496486007749, 0.0, 0.0, 0.0, 0.0, 0.0, 0.0, -0.488, -0.736, 0.508, 192.0, 0.0, 0.0, 0.0, 0.0, 0.0, 0.0, 0.0, 0.0, 0.0, 1.677707660191217E9, 0.0, 2023-03-01 13:54:20.191
191.0, 10632.031933311455, 14284.083459864076, 0.0, 0.0, 0.0, 0.0, 0.0, 0.0, -0.488, -0.736, 0.508, 192.0, 0.0, 0.0, 0.0, 0.0, 0.0, 0.0, 0.0, 0.0, 0.0, 1.677707660191225E9, 0.0, 2023-03-01 13:54:20.191
192.0, 10629.372075721274, 14285.513971509215, 0.0, 0.0, 0.0, 0.0, 0.0, 0.0, -0.488, -0.736, 0.508, 192.0, 0.0, 0.0, 0.0, 0.0, 0.0, 0.0, 0.0, 0.0, 0.0, 1.677707660198648E9, 0.0, 2023-03-01 13:54:20.198
193.0, 10629.461482699095, 14286.184523842874, 0.0, 0.0, 0.0, 0.0, 0.0, 0.0, -0.488, -0.736, 0.508, 192.0, 0.0, 0.0, 0.0, 0.0, 0.0, 0.0, 0.0, 0.0, 0.0, 1.677707660198666E9, 0.0, 2023-03-01 13:54:20.198
194.0, 10633.261279256498, 14290.431355289384, 0.0, 0.0, 0.0, 0.0, 0.0, 0.0, -0.488, -0.736, 0.508, 192.0, 0.0, 0.0, 0.0, 0.0, 0.0, 0.0, 0.0, 0.0, 0.0, 1.677707660205756E9, 0.0, 2023-03-01 13:54:20.205
195.0, 10637.262241513998, 14294.521724524704, 0.0, 0.0, 0.0, 0.0, 0.0, 0.0, -0.488, -0.736, 0.508, 192.0, 0.0, 0.0, 0.0, 0.0, 0.0, 0.0, 0.0, 0.0, 0.0, 1.677707660213748E9, 0.0, 2023-03-01 13:54:20.213
196.0, 10631.71900888908, 14290.051375633642, 0.0, 0.0, 0.0, 0.0, 0.0, 0.0, -0.488, -0.736, 0.508, 192.0, 0.0, 0.0, 0.0, 0.0, 0.0, 0.0, 0.0, 0.0, 0.0, 1.677707660213765E9, 0.0, 2023-03-01 13:54:20.213
197.0, 10624.76761636348, 14282.898817407944, 0.0, 0.0, 0.0, 0.0, 0.0, 0.0, -0.486, -0.74, 0.504, 192.0, 240.0, 208.0, 232.0, 224.0, 15.0, 192.0, 0.0, 0.0, 0.0, 1.677707660220894E9, 0.0, 2023-03-01 13:54:20.220
198.0, 10631.763712377991, 14287.413869787917, 0.0, 0.0, 0.0, 0.0, 0.0, 0.0, -0.486, -0.74, 0.504, 192.0, 0.0, 0.0, 0.0, 0.0, 0.0, 0.0, 0.0, 0.0, 0.0, 1.677707660220909E9, 0.0, 2023-03-01 13:54:20.220
199.0, 10631.584898422348, 14288.01736688821, 0.0, 0.0, 0.0, 0.0, 0.0, 0.0, -0.486, -0.74, 0.504, 192.0, 0.0, 0.0, 0.0, 0.0, 0.0, 0.0, 0.0, 0.0, 0.0, 1.677707660228281E9, 0.0, 2023-03-01 13:54:20.228
200.0, 10622.845366340323, 14283.189390085863, 0.0, 0.0, 0.0, 0.0, 0.0, 0.0, -0.486, -0.74, 0.504, 192.0, 0.0, 0.0, 0.0, 0.0, 0.0, 0.0, 0.0, 0.0, 0.0, 1.677707660228296E9, 0.0, 2023-03-01 13:54:20.228
201.0, 10620.945468061624, 14282.675299963392, 0.0, 0.0, 0.0, 0.0, 0.0, 0.0, -0.486, -0.74, 0.504, 192.0, 0.0, 0.0, 0.0, 0.0, 0.0, 0.0, 0.0, 0.0, 0.0, 1.677707660236327E9, 0.0, 2023-03-01 13:54:20.236
202.0, 10627.00279080901, 14287.011538387722, 0.0, 0.0, 0.0, 0.0, 0.0, 0.0, -0.486, -0.74, 0.504, 192.0, 0.0, 0.0, 0.0, 0.0, 0.0, 0.0, 0.0, 0.0, 0.0, 1.677707660236336E9, 0.0, 2023-03-01 13:54:20.236
203.0, 10629.349723976818, 14292.68888147937, 0.0, 0.0, 0.0, 0.0, 0.0, 0.0, -0.486, -0.74, 0.504, 192.0, 0.0, 0.0, 0.0, 0.0, 0.0, 0.0, 0.0, 0.0, 0.0, 1.67770766024445E9, 0.0, 2023-03-01 13:54:20.244
204.0, 10626.935735575646, 14287.279759321185, 0.0, 0.0, 0.0, 0.0, 0.0, 0.0, -0.486, -0.74, 0.504, 192.0, 0.0, 0.0, 0.0, 0.0, 0.0, 0.0, 0.0, 0.0, 0.0, 1.677707660244467E9, 0.0, 2023-03-01 13:54:20.244
205.0, 10623.381808207252, 14281.356547040528, 0.0, 0.0, 0.0, 0.0, 0.0, 0.0, -0.486, -0.74, 0.504, 192.0, 0.0, 0.0, 0.0, 0.0, 0.0, 0.0, 0.0, 0.0, 0.0, 1.677707660250918E9, 0.0, 2023-03-01 13:54:20.250
206.0, 10630.132035032753, 14284.01640463071, 0.0, 0.0, 0.0, 0.0, 0.0, 0.0, -0.486, -0.74, 0.504, 192.0, 0.0, 0.0, 0.0, 0.0, 0.0, 0.0, 0.0, 0.0, 0.0, 1.67770766025095E9, 0.0, 2023-03-01 13:54:20.250
207.0, 10632.657782156204, 14287.570331999104, 0.0, 0.0, 0.0, 0.0, 0.0, 0.0, -0.488, -0.744, 0.5, 192.0, 240.0, 192.0, 232.0, 192.0, 15.0, 160.0, 0.0, 0.0, 0.0, 1.67770766025894E9, 0.0, 2023-03-01 13:54:20.258
208.0, 10628.925040832168, 14281.624767973992, 0.0, 0.0, 0.0, 0.0, 0.0, 0.0, -0.488, -0.744, 0.5, 192.0, 0.0, 0.0, 0.0, 0.0, 0.0, 0.0, 0.0, 0.0, 0.0, 1.677707660258959E9, 0.0, 2023-03-01 13:54:20.258
209.0, 10628.902689087712, 14282.518837752204, 0.0, 0.0, 0.0, 0.0, 0.0, 0.0, -0.488, -0.744, 0.5, 192.0, 0.0, 0.0, 0.0, 0.0, 0.0, 0.0, 0.0, 0.0, 0.0, 1.677707660266025E9, 0.0, 2023-03-01 13:54:20.266
210.0, 10634.91530834619, 14294.767593713714, 0.0, 0.0, 0.0, 0.0, 0.0, 0.0, -0.488, -0.744, 0.5, 192.0, 0.0, 0.0, 0.0, 0.0, 0.0, 0.0, 0.0, 0.0, 0.0, 1.677707660275527E9, 0.0, 2023-03-01 13:54:20.275
211.0, 10644.548910206428, 14296.39927105895, 0.0, 0.0, 0.0, 0.0, 0.0, 0.0, -0.488, -0.744, 0.5, 192.0, 0.0, 0.0, 0.0, 0.0, 0.0, 0.0, 0.0, 0.0, 0.0, 1.677707660275543E9, 0.0, 2023-03-01 13:54:20.275
212.0, 10638.156311292209, 14290.16313435592, 0.0, 0.0, 0.0, 0.0, 0.0, 0.0, -0.488, -0.744, 0.5, 192.0, 0.0, 0.0, 0.0, 0.0, 0.0, 0.0, 0.0, 0.0, 0.0, 1.677707660281633E9, 0.0, 2023-03-01 13:54:20.281
213.0, 10631.271973999974, 14286.9221314099, 0.0, 0.0, 0.0, 0.0, 0.0, 0.0, -0.488, -0.744, 0.5, 192.0, 0.0, 0.0, 0.0, 0.0, 0.0, 0.0, 0.0, 0.0, 0.0, 1.677707660281642E9, 0.0, 2023-03-01 13:54:20.281
214.0, 10627.494529187028, 14292.68888147937, 0.0, 0.0, 0.0, 0.0, 0.0, 0.0, -0.488, -0.744, 0.5, 192.0, 0.0, 0.0, 0.0, 0.0, 0.0, 0.0, 0.0, 0.0, 0.0, 1.677707660288565E9, 0.0, 2023-03-01 13:54:20.288
215.0, 10630.489662944039, 14296.354567570039, 0.0, 0.0, 0.0, 0.0, 0.0, 0.0, -0.488, -0.744, 0.5, 192.0, 0.0, 0.0, 0.0, 0.0, 0.0, 0.0, 0.0, 0.0, 0.0, 1.677707660288582E9, 0.0, 2023-03-01 13:54:20.288
216.0, 10627.829805353858, 14281.669471462903, 0.0, 0.0, 0.0, 0.0, 0.0, 0.0, -0.488, -0.744, 0.5, 192.0, 0.0, 0.0, 0.0, 0.0, 0.0, 0.0, 0.0, 0.0, 0.0, 1.677707660296616E9, 0.0, 2023-03-01 13:54:20.296
217.0, 10623.739436118536, 14276.640328960459, 0.0, 0.0, 0.0, 0.0, 0.0, 0.0, -0.488, -0.744, 0.5, 192.0, 0.0, 0.0, 0.0, 0.0, 0.0, 0.0, 0.0, 0.0, 0.0, 1.677707660296631E9, 0.0, 2023-03-01 13:54:20.296
218.0, 10629.908517588201, 14279.188427828363, 0.0, 0.0, 0.0, 0.0, 0.0, 0.0, -0.49, -0.736, 0.494, 192.0, 240.0, 176.0, 233.0, 0.0, 15.0, 112.0, 0.0, 0.0, 0.0, 1.677707660303791E9, 0.0, 2023-03-01 13:54:20.303
219.0, 10637.888090358745, 14287.704442465836, 0.0, 0.0, 0.0, 0.0, 0.0, 0.0, -0.49, -0.736, 0.494, 192.0, 0.0, 0.0, 0.0, 0.0, 0.0, 0.0, 0.0, 0.0, 0.0, 1.677707660303809E9, 0.0, 2023-03-01 13:54:20.303
220.0, 10640.615003182293, 14290.431355289384, 0.0, 0.0, 0.0, 0.0, 0.0, 0.0, -0.49, -0.736, 0.494, 192.0, 0.0, 0.0, 0.0, 0.0, 0.0, 0.0, 0.0, 0.0, 0.0, 1.677707660311334E9, 0.0, 2023-03-01 13:54:20.311
221.0, 10636.815206624891, 14285.424564531395, 0.0, 0.0, 0.0, 0.0, 0.0, 0.0, -0.49, -0.736, 0.494, 192.0, 0.0, 0.0, 0.0, 0.0, 0.0, 0.0, 0.0, 0.0, 0.0, 1.677707660311348E9, 0.0, 2023-03-01 13:54:20.311
222.0, 10632.233099011553, 14294.16409661342, 0.0, 0.0, 0.0, 0.0, 0.0, 0.0, -0.49, -0.736, 0.494, 192.0, 0.0, 0.0, 0.0, 0.0, 0.0, 0.0, 0.0, 0.0, 0.0, 1.677707660319263E9, 0.0, 2023-03-01 13:54:20.319
223.0, 10639.96680259309, 14297.270989092707, 0.0, 0.0, 0.0, 0.0, 0.0, 0.0, -0.49, -0.736, 0.494, 192.0, 0.0, 0.0, 0.0, 0.0, 0.0, 0.0, 0.0, 0.0, 0.0, 1.677707660319278E9, 0.0, 2023-03-01 13:54:20.319
224.0, 10642.179625294164, 14289.40317504444, 0.0, 0.0, 0.0, 0.0, 0.0, 0.0, -0.49, -0.736, 0.494, 192.0, 0.0, 0.0, 0.0, 0.0, 0.0, 0.0, 0.0, 0.0, 0.0, 1.677707660326323E9, 0.0, 2023-03-01 13:54:20.326
225.0, 10634.132997290255, 14287.212704087819, 0.0, 0.0, 0.0, 0.0, 0.0, 0.0, -0.49, -0.736, 0.494, 192.0, 0.0, 0.0, 0.0, 0.0, 0.0, 0.0, 0.0, 0.0, 0.0, 1.677707660334357E9, 0.0, 2023-03-01 13:54:20.334
226.0, 10633.82007286788, 14293.627654746493, 0.0, 0.0, 0.0, 0.0, 0.0, 0.0, -0.49, -0.736, 0.494, 192.0, 0.0, 0.0, 0.0, 0.0, 0.0, 0.0, 0.0, 0.0, 0.0, 1.677707660334381E9, 0.0, 2023-03-01 13:54:20.334
227.0, 10636.211709524598, 14297.092175137064, 0.0, 0.0, 0.0, 0.0, 0.0, 0.0, -0.49, -0.736, 0.494, 192.0, 0.0, 0.0, 0.0, 0.0, 0.0, 0.0, 0.0, 0.0, 0.0, 1.6777076603408E9, 0.0, 2023-03-01 13:54:20.340
228.0, 10650.941509120645, 14311.129070654997, 0.0, 0.0, 0.0, 0.0, 0.0, 0.0, -0.488, -0.736, 0.494, 192.0, 240.0, 192.0, 233.0, 0.0, 15.0, 112.0, 0.0, 0.0, 0.0, 1.677707660340814E9, 0.0, 2023-03-01 13:54:20.340
229.0, 10672.130962864276, 14323.467233594327, 0.0, 0.0, 0.0, 0.0, 0.0, 0.0, -0.488, -0.736, 0.494, 192.0, 0.0, 0.0, 0.0, 0.0, 0.0, 0.0, 0.0, 0.0, 0.0, 1.677707660349433E9, 0.0, 2023-03-01 13:54:20.349
230.0, 10643.744247406035, 14290.721927967303, 0.0, 0.0, 0.0, 0.0, 0.0, 0.0, -0.488, -0.736, 0.494, 192.0, 0.0, 0.0, 0.0, 0.0, 0.0, 0.0, 0.0, 0.0, 0.0, 1.677707660349459E9, 0.0, 2023-03-01 13:54:20.349
231.0, 10613.189412735632, 14267.990203856256, 0.0, 0.0, 0.0, 0.0, 0.0, 0.0, -0.488, -0.736, 0.494, 192.0, 0.0, 0.0, 0.0, 0.0, 0.0, 0.0, 0.0, 0.0, 0.0, 1.677707660356087E9, 0.0, 2023-03-01 13:54:20.356
232.0, 10627.181604764653, 14276.305052793628, 0.0, 0.0, 0.0, 0.0, 0.0, 0.0, -0.488, -0.736, 0.494, 192.0, 0.0, 0.0, 0.0, 0.0, 0.0, 0.0, 0.0, 0.0, 0.0, 1.6777076603561E9, 0.0, 2023-03-01 13:54:20.356
233.0, 10642.738418905546, 14283.457611019328, 0.0, 0.0, 0.0, 0.0, 0.0, 0.0, -0.488, -0.736, 0.494, 192.0, 0.0, 0.0, 0.0, 0.0, 0.0, 0.0, 0.0, 0.0, 0.0, 1.677707660363465E9, 0.0, 2023-03-01 13:54:20.363
234.0, 10639.519767703983, 14281.043622618154, 0.0, 0.0, 0.0, 0.0, 0.0, 0.0, -0.488, -0.736, 0.494, 192.0, 0.0, 0.0, 0.0, 0.0, 0.0, 0.0, 0.0, 0.0, 0.0, 1.677707660363481E9, 0.0, 2023-03-01 13:54:20.363
235.0, 10635.988192080045, 14275.790962671157, 0.0, 0.0, 0.0, 0.0, 0.0, 0.0, -0.488, -0.736, 0.494, 192.0, 0.0, 0.0, 0.0, 0.0, 0.0, 0.0, 0.0, 0.0, 0.0, 1.677707660371476E9, 0.0, 2023-03-01 13:54:20.371
236.0, 10638.223366525575, 14273.82400915909, 0.0, 0.0, 0.0, 0.0, 0.0, 0.0, -0.488, -0.736, 0.494, 192.0, 0.0, 0.0, 0.0, 0.0, 0.0, 0.0, 0.0, 0.0, 0.0, 1.677707660371485E9, 0.0, 2023-03-01 13:54:20.371
237.0, 10640.726761904569, 14278.696689450348, 0.0, 0.0, 0.0, 0.0, 0.0, 0.0, -0.488, -0.736, 0.494, 192.0, 0.0, 0.0, 0.0, 0.0, 0.0, 0.0, 0.0, 0.0, 0.0, 1.677707660379493E9, 0.0, 2023-03-01 13:54:20.379
238.0, 10630.981401322057, 14274.069878348098, 0.0, 0.0, 0.0, 0.0, 0.0, 0.0, -0.488, -0.744, 0.504, 192.0, 240.0, 192.0, 232.0, 192.0, 15.0, 192.0, 0.0, 0.0, 0.0, 1.677707660379508E9, 0.0, 2023-03-01 13:54:20.379
239.0, 10640.458540971105, 14277.802619672135, 0.0, 0.0, 0.0, 0.0, 0.0, 0.0, -0.488, -0.744, 0.504, 192.0, 0.0, 0.0, 0.0, 0.0, 0.0, 0.0, 0.0, 0.0, 0.0, 1.677707660385547E9, 0.0, 2023-03-01 13:54:20.385
240.0, 10647.432285241162, 14277.847323161046, 0.0, 0.0, 0.0, 0.0, 0.0, 0.0, -0.488, -0.744, 0.504, 192.0, 0.0, 0.0, 0.0, 0.0, 0.0, 0.0, 0.0, 0.0, 0.0, 1.677707660385562E9, 0.0, 2023-03-01 13:54:20.385
241.0, 10642.9619363501, 14276.461515004816, 0.0, 0.0, 0.0, 0.0, 0.0, 0.0, -0.488, -0.744, 0.504, 192.0, 0.0, 0.0, 0.0, 0.0, 0.0, 0.0, 0.0, 0.0, 0.0, 1.677707660393214E9, 0.0, 2023-03-01 13:54:20.393
242.0, 10640.503244460017, 14276.796791171646, 0.0, 0.0, 0.0, 0.0, 0.0, 0.0, -0.488, -0.744, 0.504, 192.0, 0.0, 0.0, 0.0, 0.0, 0.0, 0.0, 0.0, 0.0, 0.0, 1.677707660401182E9, 0.0, 2023-03-01 13:54:20.401
243.0, 10637.619869425282, 14275.187465570863, 0.0, 0.0, 0.0, 0.0, 0.0, 0.0, -0.488, -0.744, 0.504, 192.0, 0.0, 0.0, 0.0, 0.0, 0.0, 0.0, 0.0, 0.0, 0.0, 1.677707660401193E9, 0.0, 2023-03-01 13:54:20.401
244.0, 10642.91723286119, 14279.300186550641, 0.0, 0.0, 0.0, 0.0, 0.0, 0.0, -0.488, -0.744, 0.504, 192.0, 0.0, 0.0, 0.0, 0.0, 0.0, 0.0, 0.0, 0.0, 0.0, 1.677707660410633E9, 0.0, 2023-03-01 13:54:20.410
245.0, 10641.643183427237, 14275.567445226605, 0.0, 0.0, 0.0, 0.0, 0.0, 0.0, -0.488, -0.744, 0.504, 192.0, 0.0, 0.0, 0.0, 0.0, 0.0, 0.0, 0.0, 0.0, 0.0, 1.677707660410643E9, 0.0, 2023-03-01 13:54:20.410
246.0, 10636.926965347167, 14271.72294518029, 0.0, 0.0, 0.0, 0.0, 0.0, 0.0, -0.488, -0.744, 0.504, 192.0, 0.0, 0.0, 0.0, 0.0, 0.0, 0.0, 0.0, 0.0, 0.0, 1.677707660416762E9, 0.0, 2023-03-01 13:54:20.416
247.0, 10638.491587459039, 14271.097096335543, 0.0, 0.0, 0.0, 0.0, 0.0, 0.0, -0.488, -0.744, 0.504, 192.0, 0.0, 0.0, 0.0, 0.0, 0.0, 0.0, 0.0, 0.0, 0.0, 1.677707660416773E9, 0.0, 2023-03-01 13:54:20.416
248.0, 10638.759808392502, 14273.578139970083, 0.0, 0.0, 0.0, 0.0, 0.0, 0.0, -0.49, -0.738, 0.5, 192.0, 240.0, 176.0, 232.0, 240.0, 15.0, 160.0, 0.0, 0.0, 0.0, 1.677707660423719E9, 0.0, 2023-03-01 13:54:20.423
249.0, 10638.513939203494, 14275.232169059775, 0.0, 0.0, 0.0, 0.0, 0.0, 0.0, -0.49, -0.738, 0.5, 192.0, 0.0, 0.0, 0.0, 0.0, 0.0, 0.0, 0.0, 0.0, 0.0, 1.67770766042374E9, 0.0, 2023-03-01 13:54:20.423
250.0, 10638.893918859234, 14279.389593528462, 0.0, 0.0, 0.0, 0.0, 0.0, 0.0, -0.49, -0.738, 0.5, 192.0, 0.0, 0.0, 0.0, 0.0, 0.0, 0.0, 0.0, 0.0, 0.0, 1.677707660431761E9, 0.0, 2023-03-01 13:54:20.431
251.0, 10639.63152642626, 14277.847323161046, 0.0, 0.0, 0.0, 0.0, 0.0, 0.0, -0.49, -0.738, 0.5, 192.0, 0.0, 0.0, 0.0, 0.0, 0.0, 0.0, 0.0, 0.0, 0.0, 1.677707660431779E9, 0.0, 2023-03-01 13:54:20.431
252.0, 10645.644145684737, 14280.261311562219, 0.0, 0.0, 0.0, 0.0, 0.0, 0.0, -0.49, -0.738, 0.5, 192.0, 0.0, 0.0, 0.0, 0.0, 0.0, 0.0, 0.0, 0.0, 0.0, 1.677707660438913E9, 0.0, 2023-03-01 13:54:20.438
253.0, 10647.566395707894, 14275.455686504327, 0.0, 0.0, 0.0, 0.0, 0.0, 0.0, -0.49, -0.738, 0.5, 192.0, 0.0, 0.0, 0.0, 0.0, 0.0, 0.0, 0.0, 0.0, 0.0, 1.677707660438954E9, 0.0, 2023-03-01 13:54:20.438
254.0, 10642.291384016442, 14275.858017904524, 0.0, 0.0, 0.0, 0.0, 0.0, 0.0, -0.49, -0.738, 0.5, 192.0, 0.0, 0.0, 0.0, 0.0, 0.0, 0.0, 0.0, 0.0, 0.0, 1.677707660446423E9, 0.0, 2023-03-01 13:54:20.446
255.0, 10637.038724069444, 14271.186503313364, 0.0, 0.0, 0.0, 0.0, 0.0, 0.0, -0.49, -0.738, 0.5, 192.0, 0.0, 0.0, 0.0, 0.0, 0.0, 0.0, 0.0, 0.0, 0.0, 1.677707660446441E9, 0.0, 2023-03-01 13:54:20.446
0.0, 10641.687886916148, 14269.554825968127, 0.0, 0.0, 0.0, 0.0, 0.0, 0.0, -0.49, -0.738, 0.5, 192.0, 0.0, 0.0, 0.0, 0.0, 0.0, 0.0, 0.0, 0.0, 0.0, 1.677707660453387E9, 0.0, 2023-03-01 13:54:20.453
1.0, 10646.091180573843, 14276.483866749271, 0.0, 0.0, 0.0, 0.0, 0.0, 0.0, -0.49, -0.738, 0.5, 192.0, 0.0, 0.0, 0.0, 0.0, 0.0, 0.0, 0.0, 0.0, 0.0, 1.677707660461375E9, 0.0, 2023-03-01 13:54:20.461
2.0, 10640.950279349123, 14273.220512058797, 0.0, 0.0, 0.0, 0.0, 0.0, 0.0, -0.49, -0.734, 0.498, 192.0, 240.0, 176.0, 233.0, 16.0, 15.0, 144.0, 0.0, 0.0, 0.0, 1.67770766046139E9, 0.0, 2023-03-01 13:54:20.461
3.0, 10639.25154677052, 14272.326442280584, 0.0, 0.0, 0.0, 0.0, 0.0, 0.0, -0.49, -0.734, 0.498, 192.0, 0.0, 0.0, 0.0, 0.0, 0.0, 0.0, 0.0, 0.0, 0.0, 1.677707660471502E9, 0.0, 2023-03-01 13:54:20.471
4.0, 10640.838520626847, 14271.34296552455, 0.0, 0.0, 0.0, 0.0, 0.0, 0.0, -0.49, -0.734, 0.498, 192.0, 0.0, 0.0, 0.0, 0.0, 0.0, 0.0, 0.0, 0.0, 0.0, 1.677707660471527E9, 0.0, 2023-03-01 13:54:20.471
5.0, 10642.425494483174, 14270.359488768518, 0.0, 0.0, 0.0, 0.0, 0.0, 0.0, -0.49, -0.734, 0.498, 192.0, 0.0, 0.0, 0.0, 0.0, 0.0, 0.0, 0.0, 0.0, 0.0, 1.677707660477799E9, 0.0, 2023-03-01 13:54:20.477
6.0, 10645.19711079563, 14269.934805623867, 0.0, 0.0, 0.0, 0.0, 0.0, 0.0, -0.49, -0.734, 0.498, 192.0, 0.0, 0.0, 0.0, 0.0, 0.0, 0.0, 0.0, 0.0, 0.0, 1.677707660477824E9, 0.0, 2023-03-01 13:54:20.477
7.0, 10637.999849081023, 14265.799732899635, 0.0, 0.0, 0.0, 0.0, 0.0, 0.0, -0.49, -0.734, 0.498, 192.0, 0.0, 0.0, 0.0, 0.0, 0.0, 0.0, 0.0, 0.0, 0.0, 1.677707660484027E9, 0.0, 2023-03-01 13:54:20.484
8.0, 10635.429398468661, 14265.911491621911, 0.0, 0.0, 0.0, 0.0, 0.0, 0.0, -0.49, -0.734, 0.498, 192.0, 0.0, 0.0, 0.0, 0.0, 0.0, 0.0, 0.0, 0.0, 0.0, 1.677707660484039E9, 0.0, 2023-03-01 13:54:20.484
9.0, 10647.834616641358, 14275.209817315319, 0.0, 0.0, 0.0, 0.0, 0.0, 0.0, -0.49, -0.734, 0.498, 192.0, 0.0, 0.0, 0.0, 0.0, 0.0, 0.0, 0.0, 0.0, 0.0, 1.67770766049211E9, 0.0, 2023-03-01 13:54:20.492
10.0, 10644.906538117712, 14270.761820168713, 0.0, 0.0, 0.0, 0.0, 0.0, 0.0, -0.49, -0.734, 0.498, 192.0, 0.0, 0.0, 0.0, 0.0, 0.0, 0.0, 0.0, 0.0, 0.0, 1.677707660492125E9, 0.0, 2023-03-01 13:54:20.492
11.0, 10636.658744413704, 14269.82304690159, 0.0, 0.0, 0.0, 0.0, 0.0, 0.0, -0.49, -0.734, 0.498, 192.0, 0.0, 0.0, 0.0, 0.0, 0.0, 0.0, 0.0, 0.0, 0.0, 1.677707660498712E9, 0.0, 2023-03-01 13:54:20.498
12.0, 10637.999849081023, 14272.415849258407, 0.0, 0.0, 0.0, 0.0, 0.0, 0.0, -0.49, -0.732, 0.494, 192.0, 240.0, 176.0, 233.0, 32.0, 15.0, 112.0, 0.0, 0.0, 0.0, 1.677707660498721E9, 0.0, 2023-03-01 13:54:20.498
13.0, 10640.458540971105, 14270.672413190892, 0.0, 0.0, 0.0, 0.0, 0.0, 0.0, -0.49, -0.732, 0.494, 192.0, 0.0, 0.0, 0.0, 0.0, 0.0, 0.0, 0.0, 0.0, 0.0, 1.677707660506693E9, 0.0, 2023-03-01 13:54:20.506
14.0, 10647.320526518884, 14274.561616726116, 0.0, 0.0, 0.0, 0.0, 0.0, 0.0, -0.49, -0.732, 0.494, 192.0, 0.0, 0.0, 0.0, 0.0, 0.0, 0.0, 0.0, 0.0, 0.0, 1.677707660506743E9, 0.0, 2023-03-01 13:54:20.506
15.0, 10645.465331729094, 14271.767648669202, 0.0, 0.0, 0.0, 0.0, 0.0, 0.0, -0.49, -0.732, 0.494, 192.0, 0.0, 0.0, 0.0, 0.0, 0.0, 0.0, 0.0, 0.0, 0.0, 1.677707660513727E9, 0.0, 2023-03-01 13:54:20.513
16.0, 10641.687886916148, 14273.935767881367, 0.0, 0.0, 0.0, 0.0, 0.0, 0.0, -0.49, -0.732, 0.494, 192.0, 0.0, 0.0, 0.0, 0.0, 0.0, 0.0, 0.0, 0.0, 0.0, 1.67770766052173E9, 0.0, 2023-03-01 13:54:20.521
17.0, 10646.15823580721, 14279.009613872722, 0.0, 0.0, 0.0, 0.0, 0.0, 0.0, -0.49, -0.732, 0.494, 192.0, 0.0, 0.0, 0.0, 0.0, 0.0, 0.0, 0.0, 0.0, 0.0, 1.677707660521761E9, 0.0, 2023-03-01 13:54:20.521
18.0, 10645.130055562266, 14274.271044048197, 0.0, 0.0, 0.0, 0.0, 0.0, 0.0, -0.49, -0.732, 0.494, 192.0, 0.0, 0.0, 0.0, 0.0, 0.0, 0.0, 0.0, 0.0, 0.0, 1.677707660528385E9, 0.0, 2023-03-01 13:54:20.528
19.0, 10640.413837482196, 14270.024212601687, 0.0, 0.0, 0.0, 0.0, 0.0, 0.0, -0.49, -0.732, 0.494, 192.0, 0.0, 0.0, 0.0, 0.0, 0.0, 0.0, 0.0, 0.0, 0.0, 1.677707660528401E9, 0.0, 2023-03-01 13:54:20.528
20.0, 10643.073695072377, 14271.834703902568, 0.0, 0.0, 0.0, 0.0, 0.0, 0.0, -0.49, -0.732, 0.494, 192.0, 0.0, 0.0, 0.0, 0.0, 0.0, 0.0, 0.0, 0.0, 0.0, 1.677707660536391E9, 0.0, 2023-03-01 13:54:20.536
21.0, 10670.25341633003, 14282.138858096465, 0.0, 0.0, 0.0, 0.0, 0.0, 0.0, -0.49, -0.732, 0.494, 192.0, 0.0, 0.0, 0.0, 0.0, 0.0, 0.0, 0.0, 0.0, 0.0, 1.677707660536411E9, 0.0, 2023-03-01 13:54:20.536
22.0, 10686.793707226958, 14296.756898970236, 0.0, 0.0, 0.0, 0.0, 0.0, 0.0, -0.492, -0.736, 0.5, 192.0, 240.0, 160.0, 233.0, 0.0, 15.0, 160.0, 0.0, 0.0, 0.0, 1.677707660544367E9, 0.0, 2023-03-01 13:54:20.544
23.0, 10654.473084744583, 14290.096079122553, 0.0, 0.0, 0.0, 0.0, 0.0, 0.0, -0.492, -0.736, 0.5, 192.0, 0.0, 0.0, 0.0, 0.0, 0.0, 0.0, 0.0, 0.0, 0.0, 1.67770766054438E9, 0.0, 2023-03-01 13:54:20.544
24.0, 10622.063055284389, 14263.452799731827, 0.0, 0.0, 0.0, 0.0, 0.0, 0.0, -0.492, -0.736, 0.5, 192.0, 0.0, 0.0, 0.0, 0.0, 0.0, 0.0, 0.0, 0.0, 0.0, 1.677707660550969E9, 0.0, 2023-03-01 13:54:20.550
25.0, 10628.835633854347, 14267.029078844676, 0.0, 0.0, 0.0, 0.0, 0.0, 0.0, -0.492, -0.736, 0.5, 192.0, 0.0, 0.0, 0.0, 0.0, 0.0, 0.0, 0.0, 0.0, 0.0, 1.677707660550985E9, 0.0, 2023-03-01 13:54:20.550
26.0, 10644.928889862167, 14279.926035395389, 0.0, 0.0, 0.0, 0.0, 0.0, 0.0, -0.492, -0.736, 0.5, 192.0, 0.0, 0.0, 0.0, 0.0, 0.0, 0.0, 0.0, 0.0, 0.0, 1.677707660558994E9, 0.0, 2023-03-01 13:54:20.558
27.0, 10638.268070014487, 14279.836628417568, 0.0, 0.0, 0.0, 0.0, 0.0, 0.0, -0.492, -0.736, 0.5, 192.0, 0.0, 0.0, 0.0, 0.0, 0.0, 0.0, 0.0, 0.0, 0.0, 1.677707660559011E9, 0.0, 2023-03-01 13:54:20.559
28.0, 10639.095084559332, 14281.423602273895, 0.0, 0.0, 0.0, 0.0, 0.0, 0.0, -0.492, -0.736, 0.5, 192.0, 0.0, 0.0, 0.0, 0.0, 0.0, 0.0, 0.0, 0.0, 0.0, 1.677707660567004E9, 0.0, 2023-03-01 13:54:20.567
29.0, 10636.926965347167, 14280.753049940235, 0.0, 0.0, 0.0, 0.0, 0.0, 0.0, -0.492, -0.736, 0.5, 192.0, 0.0, 0.0, 0.0, 0.0, 0.0, 0.0, 0.0, 0.0, 0.0, 1.677707660567026E9, 0.0, 2023-03-01 13:54:20.567
30.0, 10651.29913703193, 14290.63252098948, 0.0, 0.0, 0.0, 0.0, 0.0, 0.0, -0.492, -0.736, 0.5, 192.0, 0.0, 0.0, 0.0, 0.0, 0.0, 0.0, 0.0, 0.0, 0.0, 1.677707660573997E9, 0.0, 2023-03-01 13:54:20.573
31.0, 10644.213634039597, 14284.575198242093, 0.0, 0.0, 0.0, 0.0, 0.0, 0.0, -0.492, -0.736, 0.5, 192.0, 0.0, 0.0, 0.0, 0.0, 0.0, 0.0, 0.0, 0.0, 0.0, 1.67770766058115E9, 0.0, 2023-03-01 13:54:20.581
32.0, 10637.9104421032, 14281.40125052944, 0.0, 0.0, 0.0, 0.0, 0.0, 0.0, -0.494, -0.74, 0.496, 192.0, 240.0, 144.0, 232.0, 224.0, 15.0, 128.0, 0.0, 0.0, 0.0, 1.677707660581166E9, 0.0, 2023-03-01 13:54:20.581
33.0, 10642.20197703862, 14282.474134263293, 0.0, 0.0, 0.0, 0.0, 0.0, 0.0, -0.494, -0.74, 0.496, 192.0, 0.0, 0.0, 0.0, 0.0, 0.0, 0.0, 0.0, 0.0, 0.0, 1.677707660588567E9, 0.0, 2023-03-01 13:54:20.588
34.0, 10644.30304101742, 14283.926997652889, 0.0, 0.0, 0.0, 0.0, 0.0, 0.0, -0.494, -0.74, 0.496, 192.0, 0.0, 0.0, 0.0, 0.0, 0.0, 0.0, 0.0, 0.0, 0.0, 1.677707660588577E9, 0.0, 2023-03-01 13:54:20.588
35.0, 10649.890977131245, 14289.425526788895, 0.0, 0.0, 0.0, 0.0, 0.0, 0.0, -0.494, -0.74, 0.496, 192.0, 0.0, 0.0, 0.0, 0.0, 0.0, 0.0, 0.0, 0.0, 0.0, 1.677707660596621E9, 0.0, 2023-03-01 13:54:20.596
36.0, 10643.945413106134, 14290.20783784483, 0.0, 0.0, 0.0, 0.0, 0.0, 0.0, -0.494, -0.74, 0.496, 192.0, 0.0, 0.0, 0.0, 0.0, 0.0, 0.0, 0.0, 0.0, 0.0, 1.677707660596649E9, 0.0, 2023-03-01 13:54:20.596
37.0, 10642.760770650002, 14288.68791922187, 0.0, 0.0, 0.0, 0.0, 0.0, 0.0, -0.494, -0.74, 0.496, 192.0, 0.0, 0.0, 0.0, 0.0, 0.0, 0.0, 0.0, 0.0, 0.0, 1.677707660603685E9, 0.0, 2023-03-01 13:54:20.603
38.0, 10651.567357965394, 14289.44787853335, 0.0, 0.0, 0.0, 0.0, 0.0, 0.0, -0.494, -0.74, 0.496, 192.0, 0.0, 0.0, 0.0, 0.0, 0.0, 0.0, 0.0, 0.0, 0.0, 1.677707660603709E9, 0.0, 2023-03-01 13:54:20.603
39.0, 10654.987174867056, 14291.124259367498, 0.0, 0.0, 0.0, 0.0, 0.0, 0.0, -0.494, -0.74, 0.496, 192.0, 0.0, 0.0, 0.0, 0.0, 0.0, 0.0, 0.0, 0.0, 0.0, 1.677707660611395E9, 0.0, 2023-03-01 13:54:20.611
40.0, 10645.644145684737, 14284.68695696437, 0.0, 0.0, 0.0, 0.0, 0.0, 0.0, -0.494, -0.74, 0.496, 192.0, 0.0, 0.0, 0.0, 0.0, 0.0, 0.0, 0.0, 0.0, 0.0, 1.677707660611415E9, 0.0, 2023-03-01 13:54:20.611
41.0, 10649.846273642335, 14281.580064485082, 0.0, 0.0, 0.0, 0.0, 0.0, 0.0, -0.494, -0.74, 0.496, 192.0, 0.0, 0.0, 0.0, 0.0, 0.0, 0.0, 0.0, 0.0, 0.0, 1.677707660619281E9, 0.0, 2023-03-01 13:54:20.619
42.0, 10656.216520812097, 14283.904645908433, 0.0, 0.0, 0.0, 0.0, 0.0, 0.0, -0.494, -0.74, 0.496, 192.0, 0.0, 0.0, 0.0, 0.0, 0.0, 0.0, 0.0, 0.0, 0.0, 1.677707660619299E9, 0.0, 2023-03-01 13:54:20.619
43.0, 10658.25052955753, 14294.789945458167, 0.0, 0.0, 0.0, 0.0, 0.0, 0.0, -0.486, -0.736, 0.494, 192.0, 240.0, 208.0, 233.0, 0.0, 15.0, 112.0, 0.0, 0.0, 0.0, 1.677707660627312E9, 0.0, 2023-03-01 13:54:20.627
44.0, 10647.946375363634, 14288.68791922187, 0.0, 0.0, 0.0, 0.0, 0.0, 0.0, -0.486, -0.736, 0.494, 192.0, 0.0, 0.0, 0.0, 0.0, 0.0, 0.0, 0.0, 0.0, 0.0, 1.677707660627326E9, 0.0, 2023-03-01 13:54:20.627
45.0, 10648.885148630758, 14287.212704087819, 0.0, 0.0, 0.0, 0.0, 0.0, 0.0, -0.486, -0.736, 0.494, 192.0, 0.0, 0.0, 0.0, 0.0, 0.0, 0.0, 0.0, 0.0, 0.0, 1.677707660633363E9, 0.0, 2023-03-01 13:54:20.633
46.0, 10653.333145777362, 14293.515896024215, 0.0, 0.0, 0.0, 0.0, 0.0, 0.0, -0.486, -0.736, 0.494, 192.0, 0.0, 0.0, 0.0, 0.0, 0.0, 0.0, 0.0, 0.0, 0.0, 1.677707660633371E9, 0.0, 2023-03-01 13:54:20.633
47.0, 10656.30592778992, 14289.559637255627, 0.0, 0.0, 0.0, 0.0, 0.0, 0.0, -0.486, -0.736, 0.494, 192.0, 0.0, 0.0, 0.0, 0.0, 0.0, 0.0, 0.0, 0.0, 0.0, 1.677707660640804E9, 0.0, 2023-03-01 13:54:20.640
48.0, 10653.221387055086, 14284.798715686646, 0.0, 0.0, 0.0, 0.0, 0.0, 0.0, -0.486, -0.736, 0.494, 192.0, 0.0, 0.0, 0.0, 0.0, 0.0, 0.0, 0.0, 0.0, 0.0, 1.677707660648911E9, 0.0, 2023-03-01 13:54:20.648
49.0, 10645.085352073354, 14282.295320307652, 0.0, 0.0, 0.0, 0.0, 0.0, 0.0, -0.486, -0.736, 0.494, 192.0, 0.0, 0.0, 0.0, 0.0, 0.0, 0.0, 0.0, 0.0, 0.0, 1.677707660648936E9, 0.0, 2023-03-01 13:54:20.648
50.0, 10648.77338990848, 14284.01640463071, 0.0, 0.0, 0.0, 0.0, 0.0, 0.0, -0.486, -0.736, 0.494, 192.0, 0.0, 0.0, 0.0, 0.0, 0.0, 0.0, 0.0, 0.0, 0.0, 1.677707660656866E9, 0.0, 2023-03-01 13:54:20.656
51.0, 10654.24956730003, 14291.124259367498, 0.0, 0.0, 0.0, 0.0, 0.0, 0.0, -0.486, -0.736, 0.494, 192.0, 0.0, 0.0, 0.0, 0.0, 0.0, 0.0, 0.0, 0.0, 0.0, 1.677707660656883E9, 0.0, 2023-03-01 13:54:20.656
52.0, 10648.68398293066, 14290.20783784483, 0.0, 0.0, 0.0, 0.0, 0.0, 0.0, -0.486, -0.736, 0.494, 192.0, 0.0, 0.0, 0.0, 0.0, 0.0, 0.0, 0.0, 0.0, 0.0, 1.677707660663701E9, 0.0, 2023-03-01 13:54:20.663
53.0, 10645.577090451372, 14287.190352343363, 0.0, 0.0, 0.0, 0.0, 0.0, 0.0, -0.488, -0.732, 0.504, 192.0, 240.0, 192.0, 233.0, 32.0, 15.0, 192.0, 0.0, 0.0, 0.0, 1.677707660663713E9, 0.0, 2023-03-01 13:54:20.663
54.0, 10649.01925909749, 14291.414832045417, 0.0, 0.0, 0.0, 0.0, 0.0, 0.0, -0.488, -0.732, 0.504, 192.0, 0.0, 0.0, 0.0, 0.0, 0.0, 0.0, 0.0, 0.0, 0.0, 1.677707660671403E9, 0.0, 2023-03-01 13:54:20.671
55.0, 10653.623718455281, 14291.59364600106, 0.0, 0.0, 0.0, 0.0, 0.0, 0.0, -0.488, -0.732, 0.504, 192.0, 0.0, 0.0, 0.0, 0.0, 0.0, 0.0, 0.0, 0.0, 0.0, 1.677707660671418E9, 0.0, 2023-03-01 13:54:20.671
56.0, 10652.752000421526, 14289.134954110976, 0.0, 0.0, 0.0, 0.0, 0.0, 0.0, -0.488, -0.732, 0.504, 192.0, 0.0, 0.0, 0.0, 0.0, 0.0, 0.0, 0.0, 0.0, 0.0, 1.677707660679512E9, 0.0, 2023-03-01 13:54:20.679
57.0, 10652.640241699248, 14291.504239023237, 0.0, 0.0, 0.0, 0.0, 0.0, 0.0, -0.488, -0.732, 0.504, 192.0, 0.0, 0.0, 0.0, 0.0, 0.0, 0.0, 0.0, 0.0, 0.0, 1.677707660679523E9, 0.0, 2023-03-01 13:54:20.679
58.0, 10652.684945188159, 14290.185486100376, 0.0, 0.0, 0.0, 0.0, 0.0, 0.0, -0.488, -0.732, 0.504, 192.0, 0.0, 0.0, 0.0, 0.0, 0.0, 0.0, 0.0, 0.0, 0.0, 1.677707660686584E9, 0.0, 2023-03-01 13:54:20.686
59.0, 10664.196093582643, 14298.098003637553, 0.0, 0.0, 0.0, 0.0, 0.0, 0.0, -0.488, -0.732, 0.504, 192.0, 0.0, 0.0, 0.0, 0.0, 0.0, 0.0, 0.0, 0.0, 0.0, 1.677707660686606E9, 0.0, 2023-03-01 13:54:20.686
60.0, 10664.44196277165, 14299.103832138042, 0.0, 0.0, 0.0, 0.0, 0.0, 0.0, -0.488, -0.732, 0.504, 192.0, 0.0, 0.0, 0.0, 0.0, 0.0, 0.0, 0.0, 0.0, 0.0, 1.677707660694274E9, 0.0, 2023-03-01 13:54:20.694
61.0, 10657.714087690603, 14299.439108304872, 0.0, 0.0, 0.0, 0.0, 0.0, 0.0, -0.488, -0.732, 0.504, 192.0, 0.0, 0.0, 0.0, 0.0, 0.0, 0.0, 0.0, 0.0, 0.0, 1.677707660694298E9, 0.0, 2023-03-01 13:54:20.694
62.0, 10656.037706856456, 14297.896837937456, 0.0, 0.0, 0.0, 0.0, 0.0, 0.0, -0.488, -0.732, 0.504, 192.0, 0.0, 0.0, 0.0, 0.0, 0.0, 0.0, 0.0, 0.0, 0.0, 1.677707660701133E9, 0.0, 2023-03-01 13:54:20.701
63.0, 10656.618852212294, 14292.39830880145, 0.0, 0.0, 0.0, 0.0, 0.0, 0.0, -0.486, -0.734, 0.506, 192.0, 240.0, 208.0, 233.0, 16.0, 15.0, 208.0, 0.0, 0.0, 0.0, 1.677707660709144E9, 0.0, 2023-03-01 13:54:20.709
64.0, 10661.200959825632, 14297.986244915277, 0.0, 0.0, 0.0, 0.0, 0.0, 0.0, -0.486, -0.734, 0.506, 192.0, 0.0, 0.0, 0.0, 0.0, 0.0, 0.0, 0.0, 0.0, 0.0, 1.677707660709154E9, 0.0, 2023-03-01 13:54:20.709
65.0, 10655.434209756162, 14297.53921002617, 0.0, 0.0, 0.0, 0.0, 0.0, 0.0, -0.486, -0.734, 0.506, 192.0, 0.0, 0.0, 0.0, 0.0, 0.0, 0.0, 0.0, 0.0, 0.0, 1.677707660716201E9, 0.0, 2023-03-01 13:54:20.716
66.0, 10655.59067196735, 14294.789945458167, 0.0, 0.0, 0.0, 0.0, 0.0, 0.0, -0.486, -0.734, 0.506, 192.0, 0.0, 0.0, 0.0, 0.0, 0.0, 0.0, 0.0, 0.0, 0.0, 1.677707660716214E9, 0.0, 2023-03-01 13:54:20.716
67.0, 10664.710183705114, 14298.723852482302, 0.0, 0.0, 0.0, 0.0, 0.0, 0.0, -0.486, -0.734, 0.506, 192.0, 0.0, 0.0, 0.0, 0.0, 0.0, 0.0, 0.0, 0.0, 0.0, 1.677707660723781E9, 0.0, 2023-03-01 13:54:20.723
68.0, 10663.39143078225, 14294.991111158266, 0.0, 0.0, 0.0, 0.0, 0.0, 0.0, -0.486, -0.734, 0.506, 192.0, 0.0, 0.0, 0.0, 0.0, 0.0, 0.0, 0.0, 0.0, 0.0, 1.677707660723792E9, 0.0, 2023-03-01 13:54:20.723
69.0, 10658.9657853801, 14290.20783784483, 0.0, 0.0, 0.0, 0.0, 0.0, 0.0, -0.486, -0.734, 0.506, 192.0, 0.0, 0.0, 0.0, 0.0, 0.0, 0.0, 0.0, 0.0, 0.0, 1.677707660731705E9, 0.0, 2023-03-01 13:54:20.731
70.0, 10658.205826068619, 14295.192276858364, 0.0, 0.0, 0.0, 0.0, 0.0, 0.0, -0.486, -0.734, 0.506, 192.0, 0.0, 0.0, 0.0, 0.0, 0.0, 0.0, 0.0, 0.0, 0.0, 1.677707660731719E9, 0.0, 2023-03-01 13:54:20.731
71.0, 10658.518750490994, 14300.556695527637, 0.0, 0.0, 0.0, 0.0, 0.0, 0.0, -0.486, -0.734, 0.506, 192.0, 0.0, 0.0, 0.0, 0.0, 0.0, 0.0, 0.0, 0.0, 0.0, 1.677707660739752E9, 0.0, 2023-03-01 13:54:20.739
72.0, 10662.87734065978, 14297.53921002617, 0.0, 0.0, 0.0, 0.0, 0.0, 0.0, -0.486, -0.734, 0.506, 192.0, 0.0, 0.0, 0.0, 0.0, 0.0, 0.0, 0.0, 0.0, 0.0, 1.67770766073977E9, 0.0, 2023-03-01 13:54:20.739
73.0, 10665.604253483327, 14297.852134448545, 0.0, 0.0, 0.0, 0.0, 0.0, 0.0, -0.488, -0.728, 0.51, 192.0, 240.0, 192.0, 233.0, 64.0, 15.0, 240.0, 0.0, 0.0, 0.0, 1.677707660746463E9, 0.0, 2023-03-01 13:54:20.746
74.0, 10660.463352258606, 14298.567390271115, 0.0, 0.0, 0.0, 0.0, 0.0, 0.0, -0.488, -0.728, 0.51, 192.0, 0.0, 0.0, 0.0, 0.0, 0.0, 0.0, 0.0, 0.0, 0.0, 1.677707660746479E9, 0.0, 2023-03-01 13:54:20.746
75.0, 10668.644090729249, 14310.100890410054, 0.0, 0.0, 0.0, 0.0, 0.0, 0.0, -0.488, -0.728, 0.51, 192.0, 0.0, 0.0, 0.0, 0.0, 0.0, 0.0, 0.0, 0.0, 0.0, 1.677707660754452E9, 0.0, 2023-03-01 13:54:20.754
