%OpenBCI Raw EEG Data
%Number of channels = 8
%Sample Rate = 250 Hz
%Board = OpenBCI_GUI$BoardCytonSerial
Sample Index, EXG Channel 0, EXG Channel 1, EXG Channel 2, EXG Channel 3, EXG Channel 4, EXG Channel 5, EXG Channel 6, EXG Channel 7, Accel Channel 0, Accel Channel 1, Accel Channel 2, Other, Other, Other, Other, Other, Other, Other, Analog Channel 0, Analog Channel 1, Analog Channel 2, Timestamp, Other, Timestamp (Formatted)
220.0, 29992.17420723131, 13190.524362388178, 0.0, -187500.02235174447, 0.0, 0.0, 0.0, -187500.02235174447, 0.0, 0.0, 0.0, 192.0, 0.0, 0.0, 0.0, 0.0, 0.0, 0.0, 0.0, 0.0, 0.0, 1.677706087425313E9, 0.0, 2023-03-01 13:28:07.425
221.0, 29995.571672388516, 13195.03941476815, 0.0, -187500.02235174447, 0.0, 0.0, 0.0, -187500.02235174447, -0.244, 0.048, -0.976, 192.0, 248.0, 96.0, 1.0, 128.0, 225.0, 128.0, 0.0, 0.0, 0.0, 1.677706087425347E9, 0.0, 2023-03-01 13:28:07.425
222.0, 30041.99624562219, 13265.961499924839, 0.0, -187500.02235174447, 0.0, 0.0, 0.0, -187500.02235174447, -0.244, 0.048, -0.976, 192.0, 0.0, 0.0, 0.0, 0.0, 0.0, 0.0, 0.0, 0.0, 0.0, 1.677706087425357E9, 0.0, 2023-03-01 13:28:07.425
223.0, 30036.698882186283, 13275.572750040621, 0.0, -187500.02235174447, 0.0, 0.0, 0.0, -187500.02235174447, -0.244, 0.048, -0.976, 192.0, 0.0, 0.0, 0.0, 0.0, 0.0, 0.0, 0.0, 0.0, 0.0, 1.677706087425365E9, 0.0, 2023-03-01 13:28:07.425
224.0, 29994.61054737694, 13217.502917945734, 0.0, -187500.02235174447, 0.0, 0.0, 0.0, -187500.02235174447, -0.244, 0.048, -0.976, 192.0, 0.0, 0.0, 0.0, 0.0, 0.0, 0.0, 0.0, 0.0, 0.0, 1.677706087425373E9, 0.0, 2023-03-01 13:28:07.425
0.0, 0.0, 0.0, 0.0, 0.0, 0.0, 0.0, 0.0, 0.0, -0.23800000000000002, 0.064, -0.982, 192.0, 248.0, 144.0, 2.0, 0.0, 225.0, 80.0, 0.0, 0.0, 0.0, 1.677706087514837E9, 0.0, 2023-03-01 13:28:07.514
1.0, 29746.573239156394, 13898.001777887557, 0.0, -187500.02235174447, 0.0, 0.0, 0.0, -187500.02235174447, -0.23800000000000002, 0.064, -0.982, 192.0, 0.0, 0.0, 0.0, 0.0, 0.0, 0.0, 0.0, 0.0, 0.0, 1.677706087520828E9, 0.0, 2023-03-01 13:28:07.520
2.0, 29731.642273860252, 13872.163161297221, 0.0, -187500.02235174447, 0.0, 0.0, 0.0, -187500.02235174447, -0.23800000000000002, 0.064, -0.982, 192.0, 0.0, 0.0, 0.0, 0.0, 0.0, 0.0, 0.0, 0.0, 0.0, 1.677706087520847E9, 0.0, 2023-03-01 13:28:07.520
3.0, 29633.026377323436, 13756.403476763187, 0.0, -187500.02235174447, 0.0, 0.0, 0.0, -187500.02235174447, -0.23800000000000002, 0.064, -0.982, 192.0, 0.0, 0.0, 0.0, 0.0, 0.0, 0.0, 0.0, 0.0, 0.0, 1.677706087528049E9, 0.0, 2023-03-01 13:28:07.528
4.0, 29630.277112755433, 13760.96323263207, 0.0, -187500.02235174447, 0.0, 0.0, 0.0, -187500.02235174447, -0.23800000000000002, 0.064, -0.982, 192.0, 0.0, 0.0, 0.0, 0.0, 0.0, 0.0, 0.0, 0.0, 0.0, 1.677706087528068E9, 0.0, 2023-03-01 13:28:07.528
5.0, 29725.54024762395, 13876.253530532544, 0.0, -187500.02235174447, 0.0, 0.0, 0.0, -187500.02235174447, -0.23800000000000002, 0.064, -0.982, 192.0, 0.0, 0.0, 0.0, 0.0, 0.0, 0.0, 0.0, 0.0, 0.0, 1.677706087535124E9, 0.0, 2023-03-01 13:28:07.535
6.0, 29728.848305803338, 13884.36721376982, 0.0, -187500.02235174447, 0.0, 0.0, 0.0, -187500.02235174447, -0.23800000000000002, 0.064, -0.982, 192.0, 0.0, 0.0, 0.0, 0.0, 0.0, 0.0, 0.0, 0.0, 0.0, 1.677706087535135E9, 0.0, 2023-03-01 13:28:07.535
7.0, 29638.413147737167, 13778.196427607112, 0.0, -187500.02235174447, 0.0, 0.0, 0.0, -187500.02235174447, -0.23800000000000002, 0.064, -0.982, 192.0, 0.0, 0.0, 0.0, 0.0, 0.0, 0.0, 0.0, 0.0, 0.0, 1.677706087543206E9, 0.0, 2023-03-01 13:28:07.543
8.0, 29617.514266671453, 13751.240223794011, 0.0, -187500.02235174447, 0.0, 0.0, 0.0, -187500.02235174447, -0.23600000000000002, 0.074, -0.984, 192.0, 248.0, 160.0, 2.0, 80.0, 225.0, 64.0, 0.0, 0.0, 0.0, 1.677706087549641E9, 0.0, 2023-03-01 13:28:07.549
9.0, 29707.904721248713, 13869.88328336278, 0.0, -187500.02235174447, 0.0, 0.0, 0.0, -187500.02235174447, -0.23600000000000002, 0.074, -0.984, 192.0, 0.0, 0.0, 0.0, 0.0, 0.0, 0.0, 0.0, 0.0, 0.0, 1.677706087549654E9, 0.0, 2023-03-01 13:28:07.549
10.0, 29749.03193104648, 13905.936647169192, 0.0, -187500.02235174447, 0.0, 0.0, 0.0, -187500.02235174447, -0.23600000000000002, 0.074, -0.984, 192.0, 0.0, 0.0, 0.0, 0.0, 0.0, 0.0, 0.0, 0.0, 0.0, 1.677706087557815E9, 0.0, 2023-03-01 13:28:07.557
11.0, 29675.315877832876, 13802.895105230225, 0.0, -187500.02235174447, 0.0, 0.0, 0.0, -187500.02235174447, -0.23600000000000002, 0.074, -0.984, 192.0, 0.0, 0.0, 0.0, 0.0, 0.0, 0.0, 0.0, 0.0, 0.0, 1.677706087557843E9, 0.0, 2023-03-01 13:28:07.557
12.0, 29611.85927532426, 13746.166377802656, 0.0, -187500.02235174447, 0.0, 0.0, 0.0, -187500.02235174447, -0.23600000000000002, 0.074, -0.984, 192.0, 0.0, 0.0, 0.0, 0.0, 0.0, 0.0, 0.0, 0.0, 0.0, 1.677706087565757E9, 0.0, 2023-03-01 13:28:07.565
13.0, 29689.173959395168, 13844.446998172642, 0.0, -187500.02235174447, 0.0, 0.0, 0.0, -187500.02235174447, -0.23600000000000002, 0.074, -0.984, 192.0, 0.0, 0.0, 0.0, 0.0, 0.0, 0.0, 0.0, 0.0, 0.0, 1.677706087565775E9, 0.0, 2023-03-01 13:28:07.565
14.0, 29740.873544320293, 13903.924990168214, 0.0, -187500.02235174447, 0.0, 0.0, 0.0, -187500.02235174447, -0.23600000000000002, 0.074, -0.984, 192.0, 0.0, 0.0, 0.0, 0.0, 0.0, 0.0, 0.0, 0.0, 0.0, 1.677706087572711E9, 0.0, 2023-03-01 13:28:07.572
15.0, 29665.3022963169, 13814.87564025827, 0.0, -187500.02235174447, 0.0, 0.0, 0.0, -187500.02235174447, -0.23600000000000002, 0.074, -0.984, 192.0, 0.0, 0.0, 0.0, 0.0, 0.0, 0.0, 0.0, 0.0, 0.0, 1.677706087572726E9, 0.0, 2023-03-01 13:28:07.572
16.0, 29594.514321626943, 13731.771854373439, 0.0, -187500.02235174447, 0.0, 0.0, 0.0, -187500.02235174447, -0.23600000000000002, 0.074, -0.984, 192.0, 0.0, 0.0, 0.0, 0.0, 0.0, 0.0, 0.0, 0.0, 0.0, 1.677706087581108E9, 0.0, 2023-03-01 13:28:07.581
17.0, 29662.508328259984, 13810.49469834503, 0.0, -187500.02235174447, 0.0, 0.0, 0.0, -187500.02235174447, -0.23600000000000002, 0.074, -0.984, 192.0, 0.0, 0.0, 0.0, 0.0, 0.0, 0.0, 0.0, 0.0, 0.0, 1.677706087581134E9, 0.0, 2023-03-01 13:28:07.581
18.0, 29740.78413734247, 13889.105783594345, 0.0, -187500.02235174447, 0.0, 0.0, 0.0, -187500.02235174447, -0.228, 0.076, -0.99, 192.0, 248.0, 224.0, 2.0, 96.0, 225.0, 16.0, 0.0, 0.0, 0.0, 1.677706087587545E9, 0.0, 2023-03-01 13:28:07.587
19.0, 29693.197273397123, 13826.87852703077, 0.0, -187500.02235174447, 0.0, 0.0, 0.0, -187500.02235174447, -0.228, 0.076, -0.99, 192.0, 0.0, 0.0, 0.0, 0.0, 0.0, 0.0, 0.0, 0.0, 0.0, 1.677706087587554E9, 0.0, 2023-03-01 13:28:07.587
20.0, 29609.646452623187, 13739.259688765966, 0.0, -187500.02235174447, 0.0, 0.0, 0.0, -187500.02235174447, -0.228, 0.076, -0.99, 192.0, 0.0, 0.0, 0.0, 0.0, 0.0, 0.0, 0.0, 0.0, 0.0, 1.677706087595694E9, 0.0, 2023-03-01 13:28:07.595
21.0, 29652.33828453282, 13804.750300020016, 0.0, -187500.02235174447, 0.0, 0.0, 0.0, -187500.02235174447, -0.228, 0.076, -0.99, 192.0, 0.0, 0.0, 0.0, 0.0, 0.0, 0.0, 0.0, 0.0, 0.0, 1.677706087595716E9, 0.0, 2023-03-01 13:28:07.595
22.0, 29753.41287295972, 13915.41378681824, 0.0, -187500.02235174447, 0.0, 0.0, 0.0, -187500.02235174447, -0.228, 0.076, -0.99, 192.0, 0.0, 0.0, 0.0, 0.0, 0.0, 0.0, 0.0, 0.0, 0.0, 1.677706087602691E9, 0.0, 2023-03-01 13:28:07.602
23.0, 29720.332291165865, 13875.135943309779, 0.0, -187500.02235174447, 0.0, 0.0, 0.0, -187500.02235174447, -0.228, 0.076, -0.99, 192.0, 0.0, 0.0, 0.0, 0.0, 0.0, 0.0, 0.0, 0.0, 0.0, 1.677706087610626E9, 0.0, 2023-03-01 13:28:07.610
24.0, 29619.995310305992, 13749.966174360059, 0.0, -187500.02235174447, 0.0, 0.0, 0.0, -187500.02235174447, -0.228, 0.076, -0.99, 192.0, 0.0, 0.0, 0.0, 0.0, 0.0, 0.0, 0.0, 0.0, 0.0, 1.677706087610646E9, 0.0, 2023-03-01 13:28:07.610
25.0, 29634.814516879862, 13773.033174637936, 0.0, -187500.02235174447, 0.0, 0.0, 0.0, -187500.02235174447, -0.228, 0.076, -0.99, 192.0, 0.0, 0.0, 0.0, 0.0, 0.0, 0.0, 0.0, 0.0, 0.0, 1.677706087617303E9, 0.0, 2023-03-01 13:28:07.617
26.0, 29725.65200634623, 13879.628643945294, 0.0, -187500.02235174447, 0.0, 0.0, 0.0, -187500.02235174447, -0.228, 0.076, -0.99, 192.0, 0.0, 0.0, 0.0, 0.0, 0.0, 0.0, 0.0, 0.0, 0.0, 1.677706087617313E9, 0.0, 2023-03-01 13:28:07.617
27.0, 29714.11850620729, 13856.718105878605, 0.0, -187500.02235174447, 0.0, 0.0, 0.0, -187500.02235174447, -0.228, 0.076, -0.99, 192.0, 0.0, 0.0, 0.0, 0.0, 0.0, 0.0, 0.0, 0.0, 0.0, 1.677706087625911E9, 0.0, 2023-03-01 13:28:07.625
28.0, 29619.369461461243, 13747.507482469975, 0.0, -187500.02235174447, 0.0, 0.0, 0.0, -187500.02235174447, -0.228, 0.076, -0.984, 192.0, 248.0, 224.0, 2.0, 96.0, 225.0, 64.0, 0.0, 0.0, 0.0, 1.67770608762597E9, 0.0, 2023-03-01 13:28:07.625
29.0, 29607.94772004458, 13753.274232539445, 0.0, -187500.02235174447, 0.0, 0.0, 0.0, -187500.02235174447, -0.228, 0.076, -0.984, 192.0, 0.0, 0.0, 0.0, 0.0, 0.0, 0.0, 0.0, 0.0, 0.0, 1.67770608763323E9, 0.0, 2023-03-01 13:28:07.633
30.0, 29709.06701196039, 13870.285614762977, 0.0, -187500.02235174447, 0.0, 0.0, 0.0, -187500.02235174447, -0.228, 0.076, -0.984, 192.0, 0.0, 0.0, 0.0, 0.0, 0.0, 0.0, 0.0, 0.0, 0.0, 1.677706087633239E9, 0.0, 2023-03-01 13:28:07.633
31.0, 29729.720023837093, 13884.635434703283, 0.0, -187500.02235174447, 0.0, 0.0, 0.0, -187500.02235174447, -0.228, 0.076, -0.984, 192.0, 0.0, 0.0, 0.0, 0.0, 0.0, 0.0, 0.0, 0.0, 0.0, 1.677706087640321E9, 0.0, 2023-03-01 13:28:07.640
32.0, 29670.73377021954, 13809.980608222559, 0.0, -187500.02235174447, 0.0, 0.0, 0.0, -187500.02235174447, -0.228, 0.076, -0.984, 192.0, 0.0, 0.0, 0.0, 0.0, 0.0, 0.0, 0.0, 0.0, 0.0, 1.67770608764034E9, 0.0, 2023-03-01 13:28:07.640
33.0, 29645.655112940683, 13785.706613744094, 0.0, -187500.02235174447, 0.0, 0.0, 0.0, -187500.02235174447, -0.228, 0.076, -0.984, 192.0, 0.0, 0.0, 0.0, 0.0, 0.0, 0.0, 0.0, 0.0, 0.0, 1.677706087648005E9, 0.0, 2023-03-01 13:28:07.648
34.0, 29679.272136601467, 13839.663724859205, 0.0, -187500.02235174447, 0.0, 0.0, 0.0, -187500.02235174447, -0.228, 0.076, -0.984, 192.0, 0.0, 0.0, 0.0, 0.0, 0.0, 0.0, 0.0, 0.0, 0.0, 1.677706087648019E9, 0.0, 2023-03-01 13:28:07.648
35.0, 29700.50629383401, 13851.756018609527, 0.0, -187500.02235174447, 0.0, 0.0, 0.0, -187500.02235174447, -0.228, 0.076, -0.984, 192.0, 0.0, 0.0, 0.0, 0.0, 0.0, 0.0, 0.0, 0.0, 0.0, 1.677706087655973E9, 0.0, 2023-03-01 13:28:07.655
36.0, 29664.430578283143, 13795.92136096017, 0.0, -187500.02235174447, 0.0, 0.0, 0.0, -187500.02235174447, -0.228, 0.076, -0.984, 192.0, 0.0, 0.0, 0.0, 0.0, 0.0, 0.0, 0.0, 0.0, 0.0, 1.677706087655988E9, 0.0, 2023-03-01 13:28:07.655
37.0, 29631.01472032246, 13764.293642555911, 0.0, -187500.02235174447, 0.0, 0.0, 0.0, -187500.02235174447, -0.228, 0.076, -0.984, 192.0, 0.0, 0.0, 0.0, 0.0, 0.0, 0.0, 0.0, 0.0, 0.0, 1.677706087662977E9, 0.0, 2023-03-01 13:28:07.662
38.0, 29675.092360388324, 13822.899916517725, 0.0, -187500.02235174447, 0.0, 0.0, 0.0, -187500.02235174447, -0.226, 0.082, -0.984, 192.0, 248.0, 240.0, 2.0, 144.0, 225.0, 64.0, 0.0, 0.0, 0.0, 1.677706087670056E9, 0.0, 2023-03-01 13:28:07.670
39.0, 29705.758953781005, 13865.390582727265, 0.0, -187500.02235174447, 0.0, 0.0, 0.0, -187500.02235174447, -0.226, 0.082, -0.984, 192.0, 0.0, 0.0, 0.0, 0.0, 0.0, 0.0, 0.0, 0.0, 0.0, 1.677706087670066E9, 0.0, 2023-03-01 13:28:07.670
40.0, 29669.01268589648, 13822.944620006636, 0.0, -187500.02235174447, 0.0, 0.0, 0.0, -187500.02235174447, -0.226, 0.082, -0.984, 192.0, 0.0, 0.0, 0.0, 0.0, 0.0, 0.0, 0.0, 0.0, 0.0, 1.677706087677671E9, 0.0, 2023-03-01 13:28:07.677
41.0, 29632.020548822948, 13767.579348990841, 0.0, -187500.02235174447, 0.0, 0.0, 0.0, -187500.02235174447, -0.226, 0.082, -0.984, 192.0, 0.0, 0.0, 0.0, 0.0, 0.0, 0.0, 0.0, 0.0, 0.0, 1.677706087677688E9, 0.0, 2023-03-01 13:28:07.677
42.0, 29662.86595617127, 13808.885372744247, 0.0, -187500.02235174447, 0.0, 0.0, 0.0, -187500.02235174447, -0.226, 0.082, -0.984, 192.0, 0.0, 0.0, 0.0, 0.0, 0.0, 0.0, 0.0, 0.0, 0.0, 1.677706087685558E9, 0.0, 2023-03-01 13:28:07.685
43.0, 29695.857130987304, 13853.566509910406, 0.0, -187500.02235174447, 0.0, 0.0, 0.0, -187500.02235174447, -0.226, 0.082, -0.984, 192.0, 0.0, 0.0, 0.0, 0.0, 0.0, 0.0, 0.0, 0.0, 0.0, 1.677706087685585E9, 0.0, 2023-03-01 13:28:07.685
44.0, 29672.834834198336, 13820.329465905364, 0.0, -187500.02235174447, 0.0, 0.0, 0.0, -187500.02235174447, -0.226, 0.082, -0.984, 192.0, 0.0, 0.0, 0.0, 0.0, 0.0, 0.0, 0.0, 0.0, 0.0, 1.677706087692624E9, 0.0, 2023-03-01 13:28:07.692
45.0, 29626.09733654229, 13767.177017590646, 0.0, -187500.02235174447, 0.0, 0.0, 0.0, -187500.02235174447, -0.226, 0.082, -0.984, 192.0, 0.0, 0.0, 0.0, 0.0, 0.0, 0.0, 0.0, 0.0, 0.0, 1.67770608769268E9, 0.0, 2023-03-01 13:28:07.692
46.0, 29647.82323215285, 13798.558866805895, 0.0, -187500.02235174447, 0.0, 0.0, 0.0, -187500.02235174447, -0.226, 0.082, -0.984, 192.0, 0.0, 0.0, 0.0, 0.0, 0.0, 0.0, 0.0, 0.0, 0.0, 1.677706087700258E9, 0.0, 2023-03-01 13:28:07.700
47.0, 29705.714250292094, 13857.433361701174, 0.0, -187500.02235174447, 0.0, 0.0, 0.0, -187500.02235174447, -0.226, 0.082, -0.984, 192.0, 0.0, 0.0, 0.0, 0.0, 0.0, 0.0, 0.0, 0.0, 0.0, 1.67770608770027E9, 0.0, 2023-03-01 13:28:07.700
48.0, 29692.750238508015, 13836.914460291204, 0.0, -187500.02235174447, 0.0, 0.0, 0.0, -187500.02235174447, -0.228, 0.08, -0.982, 192.0, 248.0, 224.0, 2.0, 128.0, 225.0, 80.0, 0.0, 0.0, 0.0, 1.677706087708254E9, 0.0, 2023-03-01 13:28:07.708
49.0, 29646.593886207807, 13774.642500238717, 0.0, -187500.02235174447, 0.0, 0.0, 0.0, -187500.02235174447, -0.228, 0.08, -0.982, 192.0, 0.0, 0.0, 0.0, 0.0, 0.0, 0.0, 0.0, 0.0, 0.0, 1.677706087708266E9, 0.0, 2023-03-01 13:28:07.708
50.0, 29644.40341525119, 13783.113811387278, 0.0, -187500.02235174447, 0.0, 0.0, 0.0, -187500.02235174447, -0.228, 0.08, -0.982, 192.0, 0.0, 0.0, 0.0, 0.0, 0.0, 0.0, 0.0, 0.0, 0.0, 1.677706087716142E9, 0.0, 2023-03-01 13:28:07.716
51.0, 29680.21090986859, 13843.619983627796, 0.0, -187500.02235174447, 0.0, 0.0, 0.0, -187500.02235174447, -0.228, 0.08, -0.982, 192.0, 0.0, 0.0, 0.0, 0.0, 0.0, 0.0, 0.0, 0.0, 0.0, 1.677706087716151E9, 0.0, 2023-03-01 13:28:07.716
52.0, 29682.62489826976, 13837.205032969123, 0.0, -187500.02235174447, 0.0, 0.0, 0.0, -187500.02235174447, -0.228, 0.08, -0.982, 192.0, 0.0, 0.0, 0.0, 0.0, 0.0, 0.0, 0.0, 0.0, 0.0, 1.677706087722249E9, 0.0, 2023-03-01 13:28:07.722
53.0, 29623.63864465221, 13753.944784873103, 0.0, -187500.02235174447, 0.0, 0.0, 0.0, -187500.02235174447, -0.228, 0.08, -0.982, 192.0, 0.0, 0.0, 0.0, 0.0, 0.0, 0.0, 0.0, 0.0, 0.0, 1.677706087729945E9, 0.0, 2023-03-01 13:28:07.729
54.0, 29610.518170656942, 13751.419037749654, 0.0, -187500.02235174447, 0.0, 0.0, 0.0, -187500.02235174447, -0.228, 0.08, -0.982, 192.0, 0.0, 0.0, 0.0, 0.0, 0.0, 0.0, 0.0, 0.0, 0.0, 1.67770608772996E9, 0.0, 2023-03-01 13:28:07.729
55.0, 29706.898892748224, 13877.527579966496, 0.0, -187500.02235174447, 0.0, 0.0, 0.0, -187500.02235174447, -0.228, 0.08, -0.982, 192.0, 0.0, 0.0, 0.0, 0.0, 0.0, 0.0, 0.0, 0.0, 0.0, 1.677706087737864E9, 0.0, 2023-03-01 13:28:07.737
56.0, 29718.41004114271, 13885.708318437139, 0.0, -187500.02235174447, 0.0, 0.0, 0.0, -187500.02235174447, -0.228, 0.08, -0.982, 192.0, 0.0, 0.0, 0.0, 0.0, 0.0, 0.0, 0.0, 0.0, 0.0, 1.677706087737878E9, 0.0, 2023-03-01 13:28:07.737
57.0, 29630.05359531088, 13769.658061225184, 0.0, -187500.02235174447, 0.0, 0.0, 0.0, -187500.02235174447, -0.228, 0.08, -0.982, 192.0, 0.0, 0.0, 0.0, 0.0, 0.0, 0.0, 0.0, 0.0, 0.0, 1.677706087746027E9, 0.0, 2023-03-01 13:28:07.746
58.0, 29590.75922855845, 13733.090607296303, 0.0, -187500.02235174447, 0.0, 0.0, 0.0, -187500.02235174447, -0.228, 0.088, -0.978, 192.0, 248.0, 224.0, 2.0, 192.0, 225.0, 112.0, 0.0, 0.0, 0.0, 1.677706087746043E9, 0.0, 2023-03-01 13:28:07.746
59.0, 29683.094284903324, 13843.619983627796, 0.0, -187500.02235174447, 0.0, 0.0, 0.0, -187500.02235174447, -0.228, 0.088, -0.978, 192.0, 0.0, 0.0, 0.0, 0.0, 0.0, 0.0, 0.0, 0.0, 0.0, 1.677706087752569E9, 0.0, 2023-03-01 13:28:07.752
60.0, 29720.4664016326, 13886.155353326245, 0.0, -187500.02235174447, 0.0, 0.0, 0.0, -187500.02235174447, -0.228, 0.088, -0.978, 192.0, 0.0, 0.0, 0.0, 0.0, 0.0, 0.0, 0.0, 0.0, 0.0, 1.677706087752585E9, 0.0, 2023-03-01 13:28:07.752
61.0, 29646.348017018798, 13792.546247547418, 0.0, -187500.02235174447, 0.0, 0.0, 0.0, -187500.02235174447, -0.228, 0.088, -0.978, 192.0, 0.0, 0.0, 0.0, 0.0, 0.0, 0.0, 0.0, 0.0, 0.0, 1.677706087760504E9, 0.0, 2023-03-01 13:28:07.760
62.0, 29590.870987280727, 13730.76602587295, 0.0, -187500.02235174447, 0.0, 0.0, 0.0, -187500.02235174447, -0.228, 0.088, -0.978, 192.0, 0.0, 0.0, 0.0, 0.0, 0.0, 0.0, 0.0, 0.0, 0.0, 1.677706087760525E9, 0.0, 2023-03-01 13:28:07.760
63.0, 29660.87665091475, 13824.486890374052, 0.0, -187500.02235174447, 0.0, 0.0, 0.0, -187500.02235174447, -0.228, 0.088, -0.978, 192.0, 0.0, 0.0, 0.0, 0.0, 0.0, 0.0, 0.0, 0.0, 0.0, 1.677706087768479E9, 0.0, 2023-03-01 13:28:07.768
64.0, 29725.674358090684, 13900.460469777641, 0.0, -187500.02235174447, 0.0, 0.0, 0.0, -187500.02235174447, -0.228, 0.088, -0.978, 192.0, 0.0, 0.0, 0.0, 0.0, 0.0, 0.0, 0.0, 0.0, 0.0, 1.677706087768495E9, 0.0, 2023-03-01 13:28:07.768
65.0, 29664.698799216607, 13825.40331189672, 0.0, -187500.02235174447, 0.0, 0.0, 0.0, -187500.02235174447, -0.228, 0.088, -0.978, 192.0, 0.0, 0.0, 0.0, 0.0, 0.0, 0.0, 0.0, 0.0, 0.0, 1.677706087775743E9, 0.0, 2023-03-01 13:28:07.775
66.0, 29586.24417617848, 13730.542508428396, 0.0, -187500.02235174447, 0.0, 0.0, 0.0, -187500.02235174447, -0.228, 0.088, -0.978, 192.0, 0.0, 0.0, 0.0, 0.0, 0.0, 0.0, 0.0, 0.0, 0.0, 1.677706087775762E9, 0.0, 2023-03-01 13:28:07.775
67.0, 29646.370368763255, 13803.453898841608, 0.0, -187500.02235174447, 0.0, 0.0, 0.0, -187500.02235174447, -0.228, 0.088, -0.978, 192.0, 0.0, 0.0, 0.0, 0.0, 0.0, 0.0, 0.0, 0.0, 0.0, 1.677706087782208E9, 0.0, 2023-03-01 13:28:07.782
68.0, 29730.68114884867, 13900.304007566454, 0.0, -187500.02235174447, 0.0, 0.0, 0.0, -187500.02235174447, -0.228, 0.088, -0.978, 192.0, 0.0, 0.0, 0.0, 0.0, 0.0, 0.0, 0.0, 0.0, 0.0, 1.67770608778222E9, 0.0, 2023-03-01 13:28:07.782
69.0, 29688.30224136141, 13844.670515617194, 0.0, -187500.02235174447, 0.0, 0.0, 0.0, -187500.02235174447, -0.222, 0.08600000000000001, -0.978, 192.0, 249.0, 16.0, 2.0, 176.0, 225.0, 112.0, 0.0, 0.0, 0.0, 1.677706087790112E9, 0.0, 2023-03-01 13:28:07.790
70.0, 29596.14599897218, 13746.166377802656, 0.0, -187500.02235174447, 0.0, 0.0, 0.0, -187500.02235174447, -0.222, 0.08600000000000001, -0.978, 192.0, 0.0, 0.0, 0.0, 0.0, 0.0, 0.0, 0.0, 0.0, 0.0, 1.677706087798112E9, 0.0, 2023-03-01 13:28:07.798
71.0, 29629.20422902158, 13781.191561364123, 0.0, -187500.02235174447, 0.0, 0.0, 0.0, -187500.02235174447, -0.222, 0.08600000000000001, -0.978, 192.0, 0.0, 0.0, 0.0, 0.0, 0.0, 0.0, 0.0, 0.0, 0.0, 1.677706087798124E9, 0.0, 2023-03-01 13:28:07.798
72.0, 29717.73948880905, 13874.487742720574, 0.0, -187500.02235174447, 0.0, 0.0, 0.0, -187500.02235174447, -0.222, 0.08600000000000001, -0.978, 192.0, 0.0, 0.0, 0.0, 0.0, 0.0, 0.0, 0.0, 0.0, 0.0, 1.677706087805308E9, 0.0, 2023-03-01 13:28:07.805
73.0, 29703.389668868742, 13842.234175471565, 0.0, -187500.02235174447, 0.0, 0.0, 0.0, -187500.02235174447, -0.222, 0.08600000000000001, -0.978, 192.0, 0.0, 0.0, 0.0, 0.0, 0.0, 0.0, 0.0, 0.0, 0.0, 1.677706087805334E9, 0.0, 2023-03-01 13:28:07.805
74.0, 29623.951569074583, 13758.035154108424, 0.0, -187500.02235174447, 0.0, 0.0, 0.0, -187500.02235174447, -0.222, 0.08600000000000001, -0.978, 192.0, 0.0, 0.0, 0.0, 0.0, 0.0, 0.0, 0.0, 0.0, 0.0, 1.677706087812841E9, 0.0, 2023-03-01 13:28:07.812
75.0, 29643.91167687317, 13792.72506150306, 0.0, -187500.02235174447, 0.0, 0.0, 0.0, -187500.02235174447, -0.222, 0.08600000000000001, -0.978, 192.0, 0.0, 0.0, 0.0, 0.0, 0.0, 0.0, 0.0, 0.0, 0.0, 1.677706087812855E9, 0.0, 2023-03-01 13:28:07.812
76.0, 29687.2070058831, 13854.907614577725, 0.0, -187500.02235174447, 0.0, 0.0, 0.0, -187500.02235174447, -0.222, 0.08600000000000001, -0.978, 192.0, 0.0, 0.0, 0.0, 0.0, 0.0, 0.0, 0.0, 0.0, 0.0, 1.677706087820766E9, 0.0, 2023-03-01 13:28:07.820
77.0, 29666.039903883924, 13829.06899798739, 0.0, -187500.02235174447, 0.0, 0.0, 0.0, -187500.02235174447, -0.222, 0.08600000000000001, -0.978, 192.0, 0.0, 0.0, 0.0, 0.0, 0.0, 0.0, 0.0, 0.0, 0.0, 1.677706087820825E9, 0.0, 2023-03-01 13:28:07.820
78.0, 29637.20615353658, 13768.875750169249, 0.0, -187500.02235174447, 0.0, 0.0, 0.0, -187500.02235174447, -0.222, 0.08600000000000001, -0.978, 192.0, 0.0, 0.0, 0.0, 0.0, 0.0, 0.0, 0.0, 0.0, 0.0, 1.677706087828779E9, 0.0, 2023-03-01 13:28:07.828
79.0, 29640.380101249233, 13770.328613558844, 0.0, -187500.02235174447, 0.0, 0.0, 0.0, -187500.02235174447, -0.224, 0.08600000000000001, -0.984, 192.0, 249.0, 0.0, 2.0, 176.0, 225.0, 64.0, 0.0, 0.0, 0.0, 1.677706087828795E9, 0.0, 2023-03-01 13:28:07.828
80.0, 29688.950441950616, 13840.468387659597, 0.0, -187500.02235174447, 0.0, 0.0, 0.0, -187500.02235174447, -0.224, 0.08600000000000001, -0.984, 192.0, 0.0, 0.0, 0.0, 0.0, 0.0, 0.0, 0.0, 0.0, 0.0, 1.677706087835379E9, 0.0, 2023-03-01 13:28:07.835
81.0, 29692.01263094099, 13839.708428348116, 0.0, -187500.02235174447, 0.0, 0.0, 0.0, -187500.02235174447, -0.224, 0.08600000000000001, -0.984, 192.0, 0.0, 0.0, 0.0, 0.0, 0.0, 0.0, 0.0, 0.0, 0.0, 1.677706087835395E9, 0.0, 2023-03-01 13:28:07.835
82.0, 29648.0467495974, 13781.795058464415, 0.0, -187500.02235174447, 0.0, 0.0, 0.0, -187500.02235174447, -0.224, 0.08600000000000001, -0.984, 192.0, 0.0, 0.0, 0.0, 0.0, 0.0, 0.0, 0.0, 0.0, 0.0, 1.677706087843539E9, 0.0, 2023-03-01 13:28:07.843
83.0, 29636.37913899173, 13760.404439020687, 0.0, -187500.02235174447, 0.0, 0.0, 0.0, -187500.02235174447, -0.224, 0.08600000000000001, -0.984, 192.0, 0.0, 0.0, 0.0, 0.0, 0.0, 0.0, 0.0, 0.0, 0.0, 1.677706087843565E9, 0.0, 2023-03-01 13:28:07.843
84.0, 29684.63655527074, 13824.822166540882, 0.0, -187500.02235174447, 0.0, 0.0, 0.0, -187500.02235174447, -0.224, 0.08600000000000001, -0.984, 192.0, 0.0, 0.0, 0.0, 0.0, 0.0, 0.0, 0.0, 0.0, 0.0, 1.677706087850411E9, 0.0, 2023-03-01 13:28:07.850
85.0, 29705.110753191802, 13855.041725044457, 0.0, -187500.02235174447, 0.0, 0.0, 0.0, -187500.02235174447, -0.224, 0.08600000000000001, -0.984, 192.0, 0.0, 0.0, 0.0, 0.0, 0.0, 0.0, 0.0, 0.0, 0.0, 1.67770608785849E9, 0.0, 2023-03-01 13:28:07.858
86.0, 29667.06808412887, 13796.927189460659, 0.0, -187500.02235174447, 0.0, 0.0, 0.0, -187500.02235174447, -0.224, 0.08600000000000001, -0.984, 192.0, 0.0, 0.0, 0.0, 0.0, 0.0, 0.0, 0.0, 0.0, 0.0, 1.677706087858508E9, 0.0, 2023-03-01 13:28:07.858
87.0, 29638.61431343726, 13755.062372095868, 0.0, -187500.02235174447, 0.0, 0.0, 0.0, -187500.02235174447, -0.224, 0.08600000000000001, -0.984, 192.0, 0.0, 0.0, 0.0, 0.0, 0.0, 0.0, 0.0, 0.0, 0.0, 1.677706087864972E9, 0.0, 2023-03-01 13:28:07.864
88.0, 29668.945630663115, 13805.510259331497, 0.0, -187500.02235174447, 0.0, 0.0, 0.0, -187500.02235174447, -0.224, 0.08600000000000001, -0.984, 192.0, 0.0, 0.0, 0.0, 0.0, 0.0, 0.0, 0.0, 0.0, 0.0, 1.677706087864982E9, 0.0, 2023-03-01 13:28:07.864
89.0, 29702.048564201425, 13852.135998265267, 0.0, -187500.02235174447, 0.0, 0.0, 0.0, -187500.02235174447, -0.228, 0.094, -0.976, 192.0, 248.0, 224.0, 2.0, 240.0, 225.0, 128.0, 0.0, 0.0, 0.0, 1.677706087873148E9, 0.0, 2023-03-01 13:28:07.873
90.0, 29680.054447657403, 13820.64239032774, 0.0, -187500.02235174447, 0.0, 0.0, 0.0, -187500.02235174447, -0.228, 0.094, -0.976, 192.0, 0.0, 0.0, 0.0, 0.0, 0.0, 0.0, 0.0, 0.0, 0.0, 1.677706087873161E9, 0.0, 2023-03-01 13:28:07.873
91.0, 29637.161450047668, 13759.353907031287, 0.0, -187500.02235174447, 0.0, 0.0, 0.0, -187500.02235174447, -0.228, 0.094, -0.976, 192.0, 0.0, 0.0, 0.0, 0.0, 0.0, 0.0, 0.0, 0.0, 0.0, 1.677706087880974E9, 0.0, 2023-03-01 13:28:07.880
92.0, 29656.87568865725, 13790.892218457726, 0.0, -187500.02235174447, 0.0, 0.0, 0.0, -187500.02235174447, -0.228, 0.094, -0.976, 192.0, 0.0, 0.0, 0.0, 0.0, 0.0, 0.0, 0.0, 0.0, 0.0, 1.677706087880983E9, 0.0, 2023-03-01 13:28:07.880
93.0, 29696.684145532152, 13847.106855762822, 0.0, -187500.02235174447, 0.0, 0.0, 0.0, -187500.02235174447, -0.228, 0.094, -0.976, 192.0, 0.0, 0.0, 0.0, 0.0, 0.0, 0.0, 0.0, 0.0, 0.0, 1.677706087888024E9, 0.0, 2023-03-01 13:28:07.888
94.0, 29685.55297679341, 13822.005846739514, 0.0, -187500.02235174447, 0.0, 0.0, 0.0, -187500.02235174447, -0.228, 0.094, -0.976, 192.0, 0.0, 0.0, 0.0, 0.0, 0.0, 0.0, 0.0, 0.0, 0.0, 1.677706087888103E9, 0.0, 2023-03-01 13:28:07.888
95.0, 29649.834889153826, 13766.215892579066, 0.0, -187500.02235174447, 0.0, 0.0, 0.0, -187500.02235174447, -0.228, 0.094, -0.976, 192.0, 0.0, 0.0, 0.0, 0.0, 0.0, 0.0, 0.0, 0.0, 0.0, 1.677706087895693E9, 0.0, 2023-03-01 13:28:07.895
96.0, 29663.983543394035, 13794.379090592754, 0.0, -187500.02235174447, 0.0, 0.0, 0.0, -187500.02235174447, -0.228, 0.094, -0.976, 192.0, 0.0, 0.0, 0.0, 0.0, 0.0, 0.0, 0.0, 0.0, 0.0, 1.677706087895708E9, 0.0, 2023-03-01 13:28:07.895
97.0, 29708.284700904456, 13854.684097133173, 0.0, -187500.02235174447, 0.0, 0.0, 0.0, -187500.02235174447, -0.228, 0.094, -0.976, 192.0, 0.0, 0.0, 0.0, 0.0, 0.0, 0.0, 0.0, 0.0, 0.0, 1.677706087903674E9, 0.0, 2023-03-01 13:28:07.903
98.0, 29697.377049610266, 13823.838689784849, 0.0, -187500.02235174447, 0.0, 0.0, 0.0, -187500.02235174447, -0.228, 0.094, -0.976, 192.0, 0.0, 0.0, 0.0, 0.0, 0.0, 0.0, 0.0, 0.0, 0.0, 1.677706087903692E9, 0.0, 2023-03-01 13:28:07.903
99.0, 29648.203211808588, 13759.130389586735, 0.0, -187500.02235174447, 0.0, 0.0, 0.0, -187500.02235174447, -0.23, 0.082, -0.984, 192.0, 248.0, 208.0, 2.0, 144.0, 225.0, 64.0, 0.0, 0.0, 0.0, 1.67770608791084E9, 0.0, 2023-03-01 13:28:07.910
100.0, 29644.02343559545, 13762.997241377503, 0.0, -187500.02235174447, 0.0, 0.0, 0.0, -187500.02235174447, -0.23, 0.082, -0.984, 192.0, 0.0, 0.0, 0.0, 0.0, 0.0, 0.0, 0.0, 0.0, 0.0, 1.677706087917192E9, 0.0, 2023-03-01 13:28:07.917
101.0, 29692.034982685447, 13830.275992187977, 0.0, -187500.02235174447, 0.0, 0.0, 0.0, -187500.02235174447, -0.23, 0.082, -0.984, 192.0, 0.0, 0.0, 0.0, 0.0, 0.0, 0.0, 0.0, 0.0, 0.0, 1.677706087917203E9, 0.0, 2023-03-01 13:28:07.917
102.0, 29700.0592589449, 13836.579184124374, 0.0, -187500.02235174447, 0.0, 0.0, 0.0, -187500.02235174447, -0.23, 0.082, -0.984, 192.0, 0.0, 0.0, 0.0, 0.0, 0.0, 0.0, 0.0, 0.0, 0.0, 1.677706087925359E9, 0.0, 2023-03-01 13:28:07.925
103.0, 29670.644363241718, 13778.3528898183, 0.0, -187500.02235174447, 0.0, 0.0, 0.0, -187500.02235174447, -0.23, 0.082, -0.984, 192.0, 0.0, 0.0, 0.0, 0.0, 0.0, 0.0, 0.0, 0.0, 0.0, 1.677706087925375E9, 0.0, 2023-03-01 13:28:07.925
104.0, 29654.19347932261, 13765.411229778676, 0.0, -187500.02235174447, 0.0, 0.0, 0.0, -187500.02235174447, -0.23, 0.082, -0.984, 192.0, 0.0, 0.0, 0.0, 0.0, 0.0, 0.0, 0.0, 0.0, 0.0, 1.677706087933273E9, 0.0, 2023-03-01 13:28:07.933
105.0, 29680.54618603542, 13827.616134597796, 0.0, -187500.02235174447, 0.0, 0.0, 0.0, -187500.02235174447, -0.23, 0.082, -0.984, 192.0, 0.0, 0.0, 0.0, 0.0, 0.0, 0.0, 0.0, 0.0, 0.0, 1.677706087933298E9, 0.0, 2023-03-01 13:28:07.933
106.0, 29699.411058355698, 13845.989268540057, 0.0, -187500.02235174447, 0.0, 0.0, 0.0, -187500.02235174447, -0.23, 0.082, -0.984, 192.0, 0.0, 0.0, 0.0, 0.0, 0.0, 0.0, 0.0, 0.0, 0.0, 1.67770608794035E9, 0.0, 2023-03-01 13:28:07.940
107.0, 29662.86595617127, 13795.876657471259, 0.0, -187500.02235174447, 0.0, 0.0, 0.0, -187500.02235174447, -0.23, 0.082, -0.984, 192.0, 0.0, 0.0, 0.0, 0.0, 0.0, 0.0, 0.0, 0.0, 0.0, 1.677706087940365E9, 0.0, 2023-03-01 13:28:07.940
108.0, 29638.994293093005, 13770.865055425771, 0.0, -187500.02235174447, 0.0, 0.0, 0.0, -187500.02235174447, -0.23, 0.082, -0.984, 192.0, 0.0, 0.0, 0.0, 0.0, 0.0, 0.0, 0.0, 0.0, 0.0, 1.677706087948003E9, 0.0, 2023-03-01 13:28:07.948
109.0, 29679.652116257206, 13822.095253717334, 0.0, -187500.02235174447, 0.0, 0.0, 0.0, -187500.02235174447, -0.228, 0.082, -0.986, 192.0, 248.0, 224.0, 2.0, 144.0, 225.0, 48.0, 0.0, 0.0, 0.0, 1.677706087948013E9, 0.0, 2023-03-01 13:28:07.948
110.0, 29710.855151516815, 13858.50624543503, 0.0, -187500.02235174447, 0.0, 0.0, 0.0, -187500.02235174447, -0.228, 0.082, -0.986, 192.0, 0.0, 0.0, 0.0, 0.0, 0.0, 0.0, 0.0, 0.0, 0.0, 1.6777060879561E9, 0.0, 2023-03-01 13:28:07.956
111.0, 29681.127331391257, 13809.645332055728, 0.0, -187500.02235174447, 0.0, 0.0, 0.0, -187500.02235174447, -0.228, 0.082, -0.986, 192.0, 0.0, 0.0, 0.0, 0.0, 0.0, 0.0, 0.0, 0.0, 0.0, 1.677706087956114E9, 0.0, 2023-03-01 13:28:07.956
112.0, 29641.34122626081, 13758.996279120003, 0.0, -187500.02235174447, 0.0, 0.0, 0.0, -187500.02235174447, -0.228, 0.082, -0.986, 192.0, 0.0, 0.0, 0.0, 0.0, 0.0, 0.0, 0.0, 0.0, 0.0, 1.67770608796391E9, 0.0, 2023-03-01 13:28:07.963
113.0, 29662.73184570454, 13797.307169116399, 0.0, -187500.02235174447, 0.0, 0.0, 0.0, -187500.02235174447, -0.228, 0.082, -0.986, 192.0, 0.0, 0.0, 0.0, 0.0, 0.0, 0.0, 0.0, 0.0, 0.0, 1.677706087963918E9, 0.0, 2023-03-01 13:28:07.963
114.0, 29695.49950307602, 13843.664687116705, 0.0, -187500.02235174447, 0.0, 0.0, 0.0, -187500.02235174447, -0.228, 0.082, -0.986, 192.0, 0.0, 0.0, 0.0, 0.0, 0.0, 0.0, 0.0, 0.0, 0.0, 1.677706087969999E9, 0.0, 2023-03-01 13:28:07.969
115.0, 29673.438331298632, 13808.505393088508, 0.0, -187500.02235174447, 0.0, 0.0, 0.0, -187500.02235174447, -0.228, 0.082, -0.986, 192.0, 0.0, 0.0, 0.0, 0.0, 0.0, 0.0, 0.0, 0.0, 0.0, 1.677706087977514E9, 0.0, 2023-03-01 13:28:07.977
116.0, 29636.53560120292, 13754.570633717853, 0.0, -187500.02235174447, 0.0, 0.0, 0.0, -187500.02235174447, -0.228, 0.082, -0.986, 192.0, 0.0, 0.0, 0.0, 0.0, 0.0, 0.0, 0.0, 0.0, 0.0, 1.677706087977533E9, 0.0, 2023-03-01 13:28:07.977
117.0, 29651.690083943617, 13784.410212565686, 0.0, -187500.02235174447, 0.0, 0.0, 0.0, -187500.02235174447, -0.228, 0.082, -0.986, 192.0, 0.0, 0.0, 0.0, 0.0, 0.0, 0.0, 0.0, 0.0, 0.0, 1.677706087985621E9, 0.0, 2023-03-01 13:28:07.985
118.0, 29697.041773443434, 13842.97178303859, 0.0, -187500.02235174447, 0.0, 0.0, 0.0, -187500.02235174447, -0.228, 0.082, -0.986, 192.0, 0.0, 0.0, 0.0, 0.0, 0.0, 0.0, 0.0, 0.0, 0.0, 1.677706087985636E9, 0.0, 2023-03-01 13:28:07.985
119.0, 29688.436351828143, 13822.966971751091, 0.0, -187500.02235174447, 0.0, 0.0, 0.0, -187500.02235174447, -0.23, 0.08, -0.984, 192.0, 248.0, 208.0, 2.0, 128.0, 225.0, 64.0, 0.0, 0.0, 0.0, 1.677706087993729E9, 0.0, 2023-03-01 13:28:07.993
120.0, 29638.726072159538, 13760.426790765143, 0.0, -187500.02235174447, 0.0, 0.0, 0.0, -187500.02235174447, -0.23, 0.08, -0.984, 192.0, 0.0, 0.0, 0.0, 0.0, 0.0, 0.0, 0.0, 0.0, 0.0, 1.677706087993743E9, 0.0, 2023-03-01 13:28:07.993
121.0, 29638.81547913736, 13768.406363535687, 0.0, -187500.02235174447, 0.0, 0.0, 0.0, -187500.02235174447, -0.23, 0.08, -0.984, 192.0, 0.0, 0.0, 0.0, 0.0, 0.0, 0.0, 0.0, 0.0, 0.0, 1.677706088000172E9, 0.0, 2023-03-01 13:28:08.000
122.0, 29688.525758805965, 13835.908631790715, 0.0, -187500.02235174447, 0.0, 0.0, 0.0, -187500.02235174447, -0.23, 0.08, -0.984, 192.0, 0.0, 0.0, 0.0, 0.0, 0.0, 0.0, 0.0, 0.0, 0.0, 1.67770608800018E9, 0.0, 2023-03-01 13:28:08.000
123.0, 29698.62874729976, 13844.044666772446, 0.0, -187500.02235174447, 0.0, 0.0, 0.0, -187500.02235174447, -0.23, 0.08, -0.984, 192.0, 0.0, 0.0, 0.0, 0.0, 0.0, 0.0, 0.0, 0.0, 0.0, 1.677706088008316E9, 0.0, 2023-03-01 13:28:08.008
124.0, 29664.49763351651, 13789.662872512685, 0.0, -187500.02235174447, 0.0, 0.0, 0.0, -187500.02235174447, -0.23, 0.08, -0.984, 192.0, 0.0, 0.0, 0.0, 0.0, 0.0, 0.0, 0.0, 0.0, 0.0, 1.677706088008344E9, 0.0, 2023-03-01 13:28:08.008
125.0, 29650.885421143226, 13770.976814148047, 0.0, -187500.02235174447, 0.0, 0.0, 0.0, -187500.02235174447, -0.23, 0.08, -0.984, 192.0, 0.0, 0.0, 0.0, 0.0, 0.0, 0.0, 0.0, 0.0, 0.0, 1.677706088016362E9, 0.0, 2023-03-01 13:28:08.016
126.0, 29682.714305247584, 13820.664742072195, 0.0, -187500.02235174447, 0.0, 0.0, 0.0, -187500.02235174447, -0.23, 0.08, -0.984, 192.0, 0.0, 0.0, 0.0, 0.0, 0.0, 0.0, 0.0, 0.0, 0.0, 1.677706088016435E9, 0.0, 2023-03-01 13:28:08.016
127.0, 29690.917395462682, 13831.773559066482, 0.0, -187500.02235174447, 0.0, 0.0, 0.0, -187500.02235174447, -0.23, 0.08, -0.984, 192.0, 0.0, 0.0, 0.0, 0.0, 0.0, 0.0, 0.0, 0.0, 0.0, 1.677706088023251E9, 0.0, 2023-03-01 13:28:08.023
128.0, 29654.215831067067, 13771.133276359235, 0.0, -187500.02235174447, 0.0, 0.0, 0.0, -187500.02235174447, -0.23, 0.08, -0.984, 192.0, 0.0, 0.0, 0.0, 0.0, 0.0, 0.0, 0.0, 0.0, 0.0, 1.677706088023266E9, 0.0, 2023-03-01 13:28:08.023
129.0, 29633.62987442373, 13742.612450434262, 0.0, -187500.02235174447, 0.0, 0.0, 0.0, -187500.02235174447, -0.23, 0.076, -0.988, 192.0, 248.0, 208.0, 2.0, 96.0, 225.0, 32.0, 0.0, 0.0, 0.0, 1.677706088029919E9, 0.0, 2023-03-01 13:28:08.029
130.0, 29676.43346505564, 13794.803773737405, 0.0, -187500.02235174447, 0.0, 0.0, 0.0, -187500.02235174447, -0.23, 0.076, -0.988, 192.0, 0.0, 0.0, 0.0, 0.0, 0.0, 0.0, 0.0, 0.0, 0.0, 1.677706088029934E9, 0.0, 2023-03-01 13:28:08.029
131.0, 29694.560729808898, 13815.903820503214, 0.0, -187500.02235174447, 0.0, 0.0, 0.0, -187500.02235174447, -0.23, 0.076, -0.988, 192.0, 0.0, 0.0, 0.0, 0.0, 0.0, 0.0, 0.0, 0.0, 0.0, 1.677706088037916E9, 0.0, 2023-03-01 13:28:08.037
132.0, 29656.898040401706, 13764.204235578089, 0.0, -187500.02235174447, 0.0, 0.0, 0.0, -187500.02235174447, -0.23, 0.076, -0.988, 192.0, 0.0, 0.0, 0.0, 0.0, 0.0, 0.0, 0.0, 0.0, 0.0, 1.677706088045902E9, 0.0, 2023-03-01 13:28:08.045
133.0, 29630.120650544246, 13718.561973400352, 0.0, -187500.02235174447, 0.0, 0.0, 0.0, -187500.02235174447, -0.23, 0.076, -0.988, 192.0, 0.0, 0.0, 0.0, 0.0, 0.0, 0.0, 0.0, 0.0, 0.0, 1.677706088045915E9, 0.0, 2023-03-01 13:28:08.045
134.0, 29686.1564738937, 13777.883503184737, 0.0, -187500.02235174447, 0.0, 0.0, 0.0, -187500.02235174447, -0.23, 0.076, -0.988, 192.0, 0.0, 0.0, 0.0, 0.0, 0.0, 0.0, 0.0, 0.0, 0.0, 1.677706088052826E9, 0.0, 2023-03-01 13:28:08.052
135.0, 29722.70157607813, 13825.3139049189, 0.0, -187500.02235174447, 0.0, 0.0, 0.0, -187500.02235174447, -0.23, 0.076, -0.988, 192.0, 0.0, 0.0, 0.0, 0.0, 0.0, 0.0, 0.0, 0.0, 0.0, 1.677706088052852E9, 0.0, 2023-03-01 13:28:08.052
136.0, 29688.570462294872, 13775.894197928215, 0.0, -187500.02235174447, 0.0, 0.0, 0.0, -187500.02235174447, -0.23, 0.076, -0.988, 192.0, 0.0, 0.0, 0.0, 0.0, 0.0, 0.0, 0.0, 0.0, 0.0, 1.677706088060568E9, 0.0, 2023-03-01 13:28:08.060
137.0, 29647.15267981919, 13722.987618802503, 0.0, -187500.02235174447, 0.0, 0.0, 0.0, -187500.02235174447, -0.23, 0.076, -0.988, 192.0, 0.0, 0.0, 0.0, 0.0, 0.0, 0.0, 0.0, 0.0, 0.0, 1.677706088060586E9, 0.0, 2023-03-01 13:28:08.060
138.0, 29667.291601573423, 13762.81842742186, 0.0, -187500.02235174447, 0.0, 0.0, 0.0, -187500.02235174447, -0.23, 0.076, -0.988, 192.0, 0.0, 0.0, 0.0, 0.0, 0.0, 0.0, 0.0, 0.0, 0.0, 1.677706088068625E9, 0.0, 2023-03-01 13:28:08.068
139.0, 29702.83087525736, 13815.300323402922, 0.0, -187500.02235174447, 0.0, 0.0, 0.0, -187500.02235174447, -0.23, 0.088, -0.98, 192.0, 248.0, 208.0, 2.0, 192.0, 225.0, 96.0, 0.0, 0.0, 0.0, 1.677706088068642E9, 0.0, 2023-03-01 13:28:08.068
140.0, 29688.659869272695, 13787.070070155869, 0.0, -187500.02235174447, 0.0, 0.0, 0.0, -187500.02235174447, -0.23, 0.088, -0.98, 192.0, 0.0, 0.0, 0.0, 0.0, 0.0, 0.0, 0.0, 0.0, 0.0, 1.677706088075639E9, 0.0, 2023-03-01 13:28:08.075
141.0, 29644.358711762277, 13727.346208971288, 0.0, -187500.02235174447, 0.0, 0.0, 0.0, -187500.02235174447, -0.23, 0.088, -0.98, 192.0, 0.0, 0.0, 0.0, 0.0, 0.0, 0.0, 0.0, 0.0, 0.0, 1.677706088075657E9, 0.0, 2023-03-01 13:28:08.075
142.0, 29658.552069491398, 13751.553148216386, 0.0, -187500.02235174447, 0.0, 0.0, 0.0, -187500.02235174447, -0.23, 0.088, -0.98, 192.0, 0.0, 0.0, 0.0, 0.0, 0.0, 0.0, 0.0, 0.0, 0.0, 1.677706088083162E9, 0.0, 2023-03-01 13:28:08.083
143.0, 29709.69286080514, 13814.40625362471, 0.0, -187500.02235174447, 0.0, 0.0, 0.0, -187500.02235174447, -0.23, 0.088, -0.98, 192.0, 0.0, 0.0, 0.0, 0.0, 0.0, 0.0, 0.0, 0.0, 0.0, 1.677706088083171E9, 0.0, 2023-03-01 13:28:08.083
144.0, 29699.344003122333, 13801.73281451855, 0.0, -187500.02235174447, 0.0, 0.0, 0.0, -187500.02235174447, -0.23, 0.088, -0.98, 192.0, 0.0, 0.0, 0.0, 0.0, 0.0, 0.0, 0.0, 0.0, 0.0, 1.677706088091164E9, 0.0, 2023-03-01 13:28:08.091
145.0, 29656.272191556956, 13739.058523065869, 0.0, -187500.02235174447, 0.0, 0.0, 0.0, -187500.02235174447, -0.23, 0.088, -0.98, 192.0, 0.0, 0.0, 0.0, 0.0, 0.0, 0.0, 0.0, 0.0, 0.0, 1.677706088091201E9, 0.0, 2023-03-01 13:28:08.091
146.0, 29657.613296224274, 13750.323802271343, 0.0, -187500.02235174447, 0.0, 0.0, 0.0, -187500.02235174447, -0.23, 0.088, -0.98, 192.0, 0.0, 0.0, 0.0, 0.0, 0.0, 0.0, 0.0, 0.0, 0.0, 1.677706088098074E9, 0.0, 2023-03-01 13:28:08.098
147.0, 29710.54222709444, 13816.64142807024, 0.0, -187500.02235174447, 0.0, 0.0, 0.0, -187500.02235174447, -0.23, 0.088, -0.98, 192.0, 0.0, 0.0, 0.0, 0.0, 0.0, 0.0, 0.0, 0.0, 0.0, 1.677706088105226E9, 0.0, 2023-03-01 13:28:08.105
148.0, 29725.204971457122, 13817.513146103996, 0.0, -187500.02235174447, 0.0, 0.0, 0.0, -187500.02235174447, -0.23, 0.088, -0.98, 192.0, 0.0, 0.0, 0.0, 0.0, 0.0, 0.0, 0.0, 0.0, 0.0, 1.677706088105245E9, 0.0, 2023-03-01 13:28:08.105
149.0, 29683.653078514708, 13754.704744184584, 0.0, -187500.02235174447, 0.0, 0.0, 0.0, -187500.02235174447, -0.23, 0.088, -0.98, 192.0, 0.0, 0.0, 0.0, 0.0, 0.0, 0.0, 0.0, 0.0, 0.0, 1.677706088114318E9, 0.0, 2023-03-01 13:28:08.114
150.0, 29665.39170329472, 13743.260651023467, 0.0, -187500.02235174447, 0.0, 0.0, 0.0, -187500.02235174447, -0.226, 0.088, -0.984, 192.0, 248.0, 240.0, 2.0, 192.0, 225.0, 64.0, 0.0, 0.0, 0.0, 1.677706088114331E9, 0.0, 2023-03-01 13:28:08.114
151.0, 29705.580139825364, 13809.86884950028, 0.0, -187500.02235174447, 0.0, 0.0, 0.0, -187500.02235174447, -0.226, 0.088, -0.984, 192.0, 0.0, 0.0, 0.0, 0.0, 0.0, 0.0, 0.0, 0.0, 0.0, 1.677706088120773E9, 0.0, 2023-03-01 13:28:08.120
152.0, 29721.047546988437, 13825.693884574639, 0.0, -187500.02235174447, 0.0, 0.0, 0.0, -187500.02235174447, -0.226, 0.088, -0.984, 192.0, 0.0, 0.0, 0.0, 0.0, 0.0, 0.0, 0.0, 0.0, 0.0, 1.677706088120784E9, 0.0, 2023-03-01 13:28:08.120
153.0, 29685.48592156004, 13773.904892671693, 0.0, -187500.02235174447, 0.0, 0.0, 0.0, -187500.02235174447, -0.226, 0.088, -0.984, 192.0, 0.0, 0.0, 0.0, 0.0, 0.0, 0.0, 0.0, 0.0, 0.0, 1.677706088128898E9, 0.0, 2023-03-01 13:28:08.128
154.0, 29676.858148200292, 13760.091514598313, 0.0, -187500.02235174447, 0.0, 0.0, 0.0, -187500.02235174447, -0.226, 0.088, -0.984, 192.0, 0.0, 0.0, 0.0, 0.0, 0.0, 0.0, 0.0, 0.0, 0.0, 1.677706088128906E9, 0.0, 2023-03-01 13:28:08.128
155.0, 29720.332291165865, 13813.06514895739, 0.0, -187500.02235174447, 0.0, 0.0, 0.0, -187500.02235174447, -0.226, 0.088, -0.984, 192.0, 0.0, 0.0, 0.0, 0.0, 0.0, 0.0, 0.0, 0.0, 0.0, 1.677706088135483E9, 0.0, 2023-03-01 13:28:08.135
156.0, 29741.23117223158, 13839.59666962584, 0.0, -187500.02235174447, 0.0, 0.0, 0.0, -187500.02235174447, -0.226, 0.088, -0.984, 192.0, 0.0, 0.0, 0.0, 0.0, 0.0, 0.0, 0.0, 0.0, 0.0, 1.677706088135505E9, 0.0, 2023-03-01 13:28:08.135
157.0, 29701.78034326796, 13797.77655574996, 0.0, -187500.02235174447, 0.0, 0.0, 0.0, -187500.02235174447, -0.226, 0.088, -0.984, 192.0, 0.0, 0.0, 0.0, 0.0, 0.0, 0.0, 0.0, 0.0, 0.0, 1.677706088143429E9, 0.0, 2023-03-01 13:28:08.143
158.0, 29664.49763351651, 13749.474435982042, 0.0, -187500.02235174447, 0.0, 0.0, 0.0, -187500.02235174447, -0.226, 0.088, -0.984, 192.0, 0.0, 0.0, 0.0, 0.0, 0.0, 0.0, 0.0, 0.0, 0.0, 1.677706088143446E9, 0.0, 2023-03-01 13:28:08.143
159.0, 29702.026212456967, 13791.719233002572, 0.0, -187500.02235174447, 0.0, 0.0, 0.0, -187500.02235174447, -0.226, 0.088, -0.984, 192.0, 0.0, 0.0, 0.0, 0.0, 0.0, 0.0, 0.0, 0.0, 0.0, 1.677706088151408E9, 0.0, 2023-03-01 13:28:08.151
160.0, 29738.571314641395, 13831.661800344205, 0.0, -187500.02235174447, 0.0, 0.0, 0.0, -187500.02235174447, -0.222, 0.084, -0.98, 192.0, 249.0, 16.0, 2.0, 160.0, 225.0, 96.0, 0.0, 0.0, 0.0, 1.677706088151424E9, 0.0, 2023-03-01 13:28:08.151
161.0, 29703.724945035574, 13795.854305726803, 0.0, -187500.02235174447, 0.0, 0.0, 0.0, -187500.02235174447, -0.222, 0.084, -0.98, 192.0, 0.0, 0.0, 0.0, 0.0, 0.0, 0.0, 0.0, 0.0, 0.0, 1.677706088158626E9, 0.0, 2023-03-01 13:28:08.158
162.0, 29660.295505558912, 13743.260651023467, 0.0, -187500.02235174447, 0.0, 0.0, 0.0, -187500.02235174447, -0.222, 0.084, -0.98, 192.0, 0.0, 0.0, 0.0, 0.0, 0.0, 0.0, 0.0, 0.0, 0.0, 1.677706088165138E9, 0.0, 2023-03-01 13:28:08.165
163.0, 29679.652116257206, 13770.842703681315, 0.0, -187500.02235174447, 0.0, 0.0, 0.0, -187500.02235174447, -0.222, 0.084, -0.98, 192.0, 0.0, 0.0, 0.0, 0.0, 0.0, 0.0, 0.0, 0.0, 0.0, 1.677706088165149E9, 0.0, 2023-03-01 13:28:08.165
164.0, 29720.086421976855, 13823.726931062572, 0.0, -187500.02235174447, 0.0, 0.0, 0.0, -187500.02235174447, -0.222, 0.084, -0.98, 192.0, 0.0, 0.0, 0.0, 0.0, 0.0, 0.0, 0.0, 0.0, 0.0, 1.677706088173062E9, 0.0, 2023-03-01 13:28:08.173
165.0, 29708.776439282472, 13801.73281451855, 0.0, -187500.02235174447, 0.0, 0.0, 0.0, -187500.02235174447, -0.222, 0.084, -0.98, 192.0, 0.0, 0.0, 0.0, 0.0, 0.0, 0.0, 0.0, 0.0, 0.0, 1.677706088173072E9, 0.0, 2023-03-01 13:28:08.173
166.0, 29671.15845336419, 13747.641592936707, 0.0, -187500.02235174447, 0.0, 0.0, 0.0, -187500.02235174447, -0.222, 0.084, -0.98, 192.0, 0.0, 0.0, 0.0, 0.0, 0.0, 0.0, 0.0, 0.0, 0.0, 1.677706088180989E9, 0.0, 2023-03-01 13:28:08.180
167.0, 29681.306145346898, 13767.601700735297, 0.0, -187500.02235174447, 0.0, 0.0, 0.0, -187500.02235174447, -0.222, 0.084, -0.98, 192.0, 0.0, 0.0, 0.0, 0.0, 0.0, 0.0, 0.0, 0.0, 0.0, 1.677706088181006E9, 0.0, 2023-03-01 13:28:08.181
168.0, 29711.79392478394, 13812.573410579374, 0.0, -187500.02235174447, 0.0, 0.0, 0.0, -187500.02235174447, -0.222, 0.084, -0.98, 192.0, 0.0, 0.0, 0.0, 0.0, 0.0, 0.0, 0.0, 0.0, 0.0, 1.677706088188269E9, 0.0, 2023-03-01 13:28:08.188
169.0, 29699.411058355698, 13791.048680668913, 0.0, -187500.02235174447, 0.0, 0.0, 0.0, -187500.02235174447, -0.222, 0.084, -0.98, 192.0, 0.0, 0.0, 0.0, 0.0, 0.0, 0.0, 0.0, 0.0, 0.0, 1.677706088188288E9, 0.0, 2023-03-01 13:28:08.188
170.0, 29668.744464963016, 13739.952592844082, 0.0, -187500.02235174447, 0.0, 0.0, 0.0, -187500.02235174447, -0.226, 0.084, -0.982, 192.0, 248.0, 240.0, 2.0, 160.0, 225.0, 80.0, 0.0, 0.0, 0.0, 1.677706088195738E9, 0.0, 2023-03-01 13:28:08.195
171.0, 29672.58896500933, 13750.569671460353, 0.0, -187500.02235174447, 0.0, 0.0, 0.0, -187500.02235174447, -0.226, 0.084, -0.982, 192.0, 0.0, 0.0, 0.0, 0.0, 0.0, 0.0, 0.0, 0.0, 0.0, 1.677706088195755E9, 0.0, 2023-03-01 13:28:08.195
172.0, 29713.87263701828, 13809.77944252246, 0.0, -187500.02235174447, 0.0, 0.0, 0.0, -187500.02235174447, -0.226, 0.084, -0.982, 192.0, 0.0, 0.0, 0.0, 0.0, 0.0, 0.0, 0.0, 0.0, 0.0, 1.677706088203671E9, 0.0, 2023-03-01 13:28:08.203
173.0, 29705.669546803183, 13805.599666309317, 0.0, -187500.02235174447, 0.0, 0.0, 0.0, -187500.02235174447, -0.226, 0.084, -0.982, 192.0, 0.0, 0.0, 0.0, 0.0, 0.0, 0.0, 0.0, 0.0, 0.0, 1.677706088203684E9, 0.0, 2023-03-01 13:28:08.203
174.0, 29658.01562762447, 13752.53662497242, 0.0, -187500.02235174447, 0.0, 0.0, 0.0, -187500.02235174447, -0.226, 0.084, -0.982, 192.0, 0.0, 0.0, 0.0, 0.0, 0.0, 0.0, 0.0, 0.0, 0.0, 1.677706088211715E9, 0.0, 2023-03-01 13:28:08.211
175.0, 29643.129365817236, 13741.472511467042, 0.0, -187500.02235174447, 0.0, 0.0, 0.0, -187500.02235174447, -0.226, 0.084, -0.982, 192.0, 0.0, 0.0, 0.0, 0.0, 0.0, 0.0, 0.0, 0.0, 0.0, 1.677706088211752E9, 0.0, 2023-03-01 13:28:08.211
176.0, 29688.950441950616, 13800.34700636232, 0.0, -187500.02235174447, 0.0, 0.0, 0.0, -187500.02235174447, -0.226, 0.084, -0.982, 192.0, 0.0, 0.0, 0.0, 0.0, 0.0, 0.0, 0.0, 0.0, 0.0, 1.67770608821776E9, 0.0, 2023-03-01 13:28:08.217
177.0, 29703.143799679736, 13813.06514895739, 0.0, -187500.02235174447, 0.0, 0.0, 0.0, -187500.02235174447, -0.226, 0.084, -0.982, 192.0, 0.0, 0.0, 0.0, 0.0, 0.0, 0.0, 0.0, 0.0, 0.0, 1.677706088225208E9, 0.0, 2023-03-01 13:28:08.225
178.0, 29668.342133562823, 13757.05167735239, 0.0, -187500.02235174447, 0.0, 0.0, 0.0, -187500.02235174447, -0.226, 0.084, -0.982, 192.0, 0.0, 0.0, 0.0, 0.0, 0.0, 0.0, 0.0, 0.0, 0.0, 1.677706088225223E9, 0.0, 2023-03-01 13:28:08.225
179.0, 29653.902906644693, 13735.772816630939, 0.0, -187500.02235174447, 0.0, 0.0, 0.0, -187500.02235174447, -0.226, 0.084, -0.982, 192.0, 0.0, 0.0, 0.0, 0.0, 0.0, 0.0, 0.0, 0.0, 0.0, 1.677706088233314E9, 0.0, 2023-03-01 13:28:08.233
180.0, 29687.005840183003, 13794.356738848299, 0.0, -187500.02235174447, 0.0, 0.0, 0.0, -187500.02235174447, -0.224, 0.074, -0.978, 192.0, 249.0, 0.0, 2.0, 80.0, 225.0, 112.0, 0.0, 0.0, 0.0, 1.677706088233335E9, 0.0, 2023-03-01 13:28:08.233
181.0, 29708.798791026926, 13823.078730473368, 0.0, -187500.02235174447, 0.0, 0.0, 0.0, -187500.02235174447, -0.224, 0.074, -0.978, 192.0, 0.0, 0.0, 0.0, 0.0, 0.0, 0.0, 0.0, 0.0, 0.0, 1.677706088241314E9, 0.0, 2023-03-01 13:28:08.241
182.0, 29682.06610465838, 13774.284872327433, 0.0, -187500.02235174447, 0.0, 0.0, 0.0, -187500.02235174447, -0.224, 0.074, -0.978, 192.0, 0.0, 0.0, 0.0, 0.0, 0.0, 0.0, 0.0, 0.0, 0.0, 1.677706088241328E9, 0.0, 2023-03-01 13:28:08.241
183.0, 29654.05936885588, 13730.743674128495, 0.0, -187500.02235174447, 0.0, 0.0, 0.0, -187500.02235174447, -0.224, 0.074, -0.978, 192.0, 0.0, 0.0, 0.0, 0.0, 0.0, 0.0, 0.0, 0.0, 0.0, 1.677706088247971E9, 0.0, 2023-03-01 13:28:08.247
184.0, 29681.57436628036, 13773.68137522714, 0.0, -187500.02235174447, 0.0, 0.0, 0.0, -187500.02235174447, -0.224, 0.074, -0.978, 192.0, 0.0, 0.0, 0.0, 0.0, 0.0, 0.0, 0.0, 0.0, 0.0, 1.677706088247984E9, 0.0, 2023-03-01 13:28:08.247
185.0, 29707.144761937234, 13821.49175661704, 0.0, -187500.02235174447, 0.0, 0.0, 0.0, -187500.02235174447, -0.224, 0.074, -0.978, 192.0, 0.0, 0.0, 0.0, 0.0, 0.0, 0.0, 0.0, 0.0, 0.0, 1.677706088256108E9, 0.0, 2023-03-01 13:28:08.256
186.0, 29677.551052278406, 13787.87473295626, 0.0, -187500.02235174447, 0.0, 0.0, 0.0, -187500.02235174447, -0.224, 0.074, -0.978, 192.0, 0.0, 0.0, 0.0, 0.0, 0.0, 0.0, 0.0, 0.0, 0.0, 1.677706088256117E9, 0.0, 2023-03-01 13:28:08.256
187.0, 29642.123537316747, 13737.382142231721, 0.0, -187500.02235174447, 0.0, 0.0, 0.0, -187500.02235174447, -0.224, 0.074, -0.978, 192.0, 0.0, 0.0, 0.0, 0.0, 0.0, 0.0, 0.0, 0.0, 0.0, 1.677706088263976E9, 0.0, 2023-03-01 13:28:08.263
188.0, 29664.944668405613, 13765.947671645603, 0.0, -187500.02235174447, 0.0, 0.0, 0.0, -187500.02235174447, -0.224, 0.074, -0.978, 192.0, 0.0, 0.0, 0.0, 0.0, 0.0, 0.0, 0.0, 0.0, 0.0, 1.677706088264002E9, 0.0, 2023-03-01 13:28:08.264
189.0, 29704.88723574725, 13810.1594221782, 0.0, -187500.02235174447, 0.0, 0.0, 0.0, -187500.02235174447, -0.224, 0.074, -0.978, 192.0, 0.0, 0.0, 0.0, 0.0, 0.0, 0.0, 0.0, 0.0, 0.0, 1.677706088270979E9, 0.0, 2023-03-01 13:28:08.270
190.0, 29683.02722966996, 13776.96708166207, 0.0, -187500.02235174447, 0.0, 0.0, 0.0, -187500.02235174447, -0.222, 0.082, -0.982, 192.0, 249.0, 16.0, 2.0, 144.0, 225.0, 80.0, 0.0, 0.0, 0.0, 1.677706088271001E9, 0.0, 2023-03-01 13:28:08.271
191.0, 29633.33930174581, 13718.964304800547, 0.0, -187500.02235174447, 0.0, 0.0, 0.0, -187500.02235174447, -0.222, 0.082, -0.982, 192.0, 0.0, 0.0, 0.0, 0.0, 0.0, 0.0, 0.0, 0.0, 0.0, 1.67770608827767E9, 0.0, 2023-03-01 13:28:08.277
192.0, 29646.549182718896, 13737.560956187363, 0.0, -187500.02235174447, 0.0, 0.0, 0.0, -187500.02235174447, -0.222, 0.082, -0.982, 192.0, 0.0, 0.0, 0.0, 0.0, 0.0, 0.0, 0.0, 0.0, 0.0, 1.677706088277686E9, 0.0, 2023-03-01 13:28:08.277
193.0, 29695.477151331565, 13803.565657563884, 0.0, -187500.02235174447, 0.0, 0.0, 0.0, -187500.02235174447, -0.222, 0.082, -0.982, 192.0, 0.0, 0.0, 0.0, 0.0, 0.0, 0.0, 0.0, 0.0, 0.0, 1.677706088285609E9, 0.0, 2023-03-01 13:28:08.285
194.0, 29686.759970993993, 13790.1546108907, 0.0, -187500.02235174447, 0.0, 0.0, 0.0, -187500.02235174447, -0.222, 0.082, -0.982, 192.0, 0.0, 0.0, 0.0, 0.0, 0.0, 0.0, 0.0, 0.0, 0.0, 1.677706088293576E9, 0.0, 2023-03-01 13:28:08.293
195.0, 29647.15267981919, 13737.091569553802, 0.0, -187500.02235174447, 0.0, 0.0, 0.0, -187500.02235174447, -0.222, 0.082, -0.982, 192.0, 0.0, 0.0, 0.0, 0.0, 0.0, 0.0, 0.0, 0.0, 0.0, 1.677706088293585E9, 0.0, 2023-03-01 13:28:08.293
196.0, 29645.655112940683, 13738.700895154583, 0.0, -187500.02235174447, 0.0, 0.0, 0.0, -187500.02235174447, -0.222, 0.082, -0.982, 192.0, 0.0, 0.0, 0.0, 0.0, 0.0, 0.0, 0.0, 0.0, 0.0, 1.677706088300199E9, 0.0, 2023-03-01 13:28:08.300
197.0, 29685.55297679341, 13798.201238894611, 0.0, -187500.02235174447, 0.0, 0.0, 0.0, -187500.02235174447, -0.222, 0.082, -0.982, 192.0, 0.0, 0.0, 0.0, 0.0, 0.0, 0.0, 0.0, 0.0, 0.0, 1.677706088300217E9, 0.0, 2023-03-01 13:28:08.300
198.0, 29691.45383732961, 13800.592875551329, 0.0, -187500.02235174447, 0.0, 0.0, 0.0, -187500.02235174447, -0.222, 0.082, -0.982, 192.0, 0.0, 0.0, 0.0, 0.0, 0.0, 0.0, 0.0, 0.0, 0.0, 1.677706088308654E9, 0.0, 2023-03-01 13:28:08.308
199.0, 29645.073967584845, 13730.43074970612, 0.0, -187500.02235174447, 0.0, 0.0, 0.0, -187500.02235174447, -0.222, 0.082, -0.982, 192.0, 0.0, 0.0, 0.0, 0.0, 0.0, 0.0, 0.0, 0.0, 0.0, 1.677706088308673E9, 0.0, 2023-03-01 13:28:08.308
200.0, 29622.990444063, 13712.974037286525, 0.0, -187500.02235174447, 0.0, 0.0, 0.0, -187500.02235174447, -0.222, 0.084, -0.978, 192.0, 249.0, 16.0, 2.0, 160.0, 225.0, 112.0, 0.0, 0.0, 0.0, 1.677706088316251E9, 0.0, 2023-03-01 13:28:08.316
201.0, 29668.07391262936, 13780.163381119179, 0.0, -187500.02235174447, 0.0, 0.0, 0.0, -187500.02235174447, -0.222, 0.084, -0.978, 192.0, 0.0, 0.0, 0.0, 0.0, 0.0, 0.0, 0.0, 0.0, 0.0, 1.677706088316266E9, 0.0, 2023-03-01 13:28:08.316
202.0, 29701.243901401034, 13804.392672108732, 0.0, -187500.02235174447, 0.0, 0.0, 0.0, -187500.02235174447, -0.222, 0.084, -0.978, 192.0, 0.0, 0.0, 0.0, 0.0, 0.0, 0.0, 0.0, 0.0, 0.0, 1.677706088323295E9, 0.0, 2023-03-01 13:28:08.323
203.0, 29668.230374840543, 13751.888424383214, 0.0, -187500.02235174447, 0.0, 0.0, 0.0, -187500.02235174447, -0.222, 0.084, -0.978, 192.0, 0.0, 0.0, 0.0, 0.0, 0.0, 0.0, 0.0, 0.0, 0.0, 1.677706088323306E9, 0.0, 2023-03-01 13:28:08.323
204.0, 29636.75911864747, 13717.71260711105, 0.0, -187500.02235174447, 0.0, 0.0, 0.0, -187500.02235174447, -0.222, 0.084, -0.978, 192.0, 0.0, 0.0, 0.0, 0.0, 0.0, 0.0, 0.0, 0.0, 0.0, 1.677706088330997E9, 0.0, 2023-03-01 13:28:08.330
205.0, 29670.77847370845, 13770.999165892503, 0.0, -187500.02235174447, 0.0, 0.0, 0.0, -187500.02235174447, -0.222, 0.084, -0.978, 192.0, 0.0, 0.0, 0.0, 0.0, 0.0, 0.0, 0.0, 0.0, 0.0, 1.677706088331011E9, 0.0, 2023-03-01 13:28:08.331
206.0, 29694.851302486815, 13808.550096577419, 0.0, -187500.02235174447, 0.0, 0.0, 0.0, -187500.02235174447, -0.222, 0.084, -0.978, 192.0, 0.0, 0.0, 0.0, 0.0, 0.0, 0.0, 0.0, 0.0, 0.0, 1.677706088338993E9, 0.0, 2023-03-01 13:28:08.338
207.0, 29665.14583410571, 13756.291718040911, 0.0, -187500.02235174447, 0.0, 0.0, 0.0, -187500.02235174447, -0.222, 0.084, -0.978, 192.0, 0.0, 0.0, 0.0, 0.0, 0.0, 0.0, 0.0, 0.0, 0.0, 1.677706088339035E9, 0.0, 2023-03-01 13:28:08.339
208.0, 29626.745537131494, 13712.929333797614, 0.0, -187500.02235174447, 0.0, 0.0, 0.0, -187500.02235174447, -0.222, 0.084, -0.978, 192.0, 0.0, 0.0, 0.0, 0.0, 0.0, 0.0, 0.0, 0.0, 0.0, 1.677706088345981E9, 0.0, 2023-03-01 13:28:08.345
209.0, 29657.657999713185, 13772.429677537642, 0.0, -187500.02235174447, 0.0, 0.0, 0.0, -187500.02235174447, -0.222, 0.084, -0.978, 192.0, 0.0, 0.0, 0.0, 0.0, 0.0, 0.0, 0.0, 0.0, 0.0, 1.677706088352821E9, 0.0, 2023-03-01 13:28:08.352
210.0, 29698.226415899568, 13812.416948368187, 0.0, -187500.02235174447, 0.0, 0.0, 0.0, -187500.02235174447, -0.226, 0.08, -0.982, 192.0, 248.0, 240.0, 2.0, 128.0, 225.0, 80.0, 0.0, 0.0, 0.0, 1.677706088352835E9, 0.0, 2023-03-01 13:28:08.352
211.0, 29680.859110457794, 13767.087610612823, 0.0, -187500.02235174447, 0.0, 0.0, 0.0, -187500.02235174447, -0.226, 0.08, -0.982, 192.0, 0.0, 0.0, 0.0, 0.0, 0.0, 0.0, 0.0, 0.0, 0.0, 1.677706088360553E9, 0.0, 2023-03-01 13:28:08.360
212.0, 29639.709548915573, 13715.43272917661, 0.0, -187500.02235174447, 0.0, 0.0, 0.0, -187500.02235174447, -0.226, 0.08, -0.982, 192.0, 0.0, 0.0, 0.0, 0.0, 0.0, 0.0, 0.0, 0.0, 0.0, 1.677706088360568E9, 0.0, 2023-03-01 13:28:08.360
213.0, 29659.602601480798, 13753.609508706273, 0.0, -187500.02235174447, 0.0, 0.0, 0.0, -187500.02235174447, -0.226, 0.08, -0.982, 192.0, 0.0, 0.0, 0.0, 0.0, 0.0, 0.0, 0.0, 0.0, 0.0, 1.677706088368564E9, 0.0, 2023-03-01 13:28:08.368
214.0, 29702.74146827954, 13809.891201244736, 0.0, -187500.02235174447, 0.0, 0.0, 0.0, -187500.02235174447, -0.226, 0.08, -0.982, 192.0, 0.0, 0.0, 0.0, 0.0, 0.0, 0.0, 0.0, 0.0, 0.0, 1.677706088368577E9, 0.0, 2023-03-01 13:28:08.368
215.0, 29693.420790841676, 13780.431602052642, 0.0, -187500.02235174447, 0.0, 0.0, 0.0, -187500.02235174447, -0.226, 0.08, -0.982, 192.0, 0.0, 0.0, 0.0, 0.0, 0.0, 0.0, 0.0, 0.0, 0.0, 1.677706088376494E9, 0.0, 2023-03-01 13:28:08.376
216.0, 29646.549182718896, 13721.579458901819, 0.0, -187500.02235174447, 0.0, 0.0, 0.0, -187500.02235174447, -0.226, 0.08, -0.982, 192.0, 0.0, 0.0, 0.0, 0.0, 0.0, 0.0, 0.0, 0.0, 0.0, 1.677706088376504E9, 0.0, 2023-03-01 13:28:08.376
217.0, 29646.906810630182, 13743.685334168118, 0.0, -187500.02235174447, 0.0, 0.0, 0.0, -187500.02235174447, -0.226, 0.08, -0.982, 192.0, 0.0, 0.0, 0.0, 0.0, 0.0, 0.0, 0.0, 0.0, 0.0, 1.677706088383077E9, 0.0, 2023-03-01 13:28:08.383
218.0, 29689.241014628533, 13802.917456974681, 0.0, -187500.02235174447, 0.0, 0.0, 0.0, -187500.02235174447, -0.226, 0.08, -0.982, 192.0, 0.0, 0.0, 0.0, 0.0, 0.0, 0.0, 0.0, 0.0, 0.0, 1.677706088383086E9, 0.0, 2023-03-01 13:28:08.383
219.0, 29691.789113496437, 13792.00980568049, 0.0, -187500.02235174447, 0.0, 0.0, 0.0, -187500.02235174447, -0.226, 0.08, -0.982, 192.0, 0.0, 0.0, 0.0, 0.0, 0.0, 0.0, 0.0, 0.0, 0.0, 1.677706088391205E9, 0.0, 2023-03-01 13:28:08.391
220.0, 29654.752272933994, 13741.226642278034, 0.0, -187500.02235174447, 0.0, 0.0, 0.0, -187500.02235174447, -0.222, 0.084, -0.982, 192.0, 249.0, 16.0, 2.0, 160.0, 225.0, 80.0, 0.0, 0.0, 0.0, 1.677706088391223E9, 0.0, 2023-03-01 13:28:08.391
221.0, 29644.984560607027, 13749.206215048578, 0.0, -187500.02235174447, 0.0, 0.0, 0.0, -187500.02235174447, -0.222, 0.084, -0.982, 192.0, 0.0, 0.0, 0.0, 0.0, 0.0, 0.0, 0.0, 0.0, 0.0, 1.677706088399174E9, 0.0, 2023-03-01 13:28:08.399
222.0, 29692.459665830098, 13808.550096577419, 0.0, -187500.02235174447, 0.0, 0.0, 0.0, -187500.02235174447, -0.222, 0.084, -0.982, 192.0, 0.0, 0.0, 0.0, 0.0, 0.0, 0.0, 0.0, 0.0, 0.0, 1.677706088399194E9, 0.0, 2023-03-01 13:28:08.399
223.0, 29701.646232801228, 13806.538439576441, 0.0, -187500.02235174447, 0.0, 0.0, 0.0, -187500.02235174447, -0.222, 0.084, -0.982, 192.0, 0.0, 0.0, 0.0, 0.0, 0.0, 0.0, 0.0, 0.0, 0.0, 1.677706088406106E9, 0.0, 2023-03-01 13:28:08.406
224.0, 29664.318819560867, 13746.725171414038, 0.0, -187500.02235174447, 0.0, 0.0, 0.0, -187500.02235174447, -0.222, 0.084, -0.982, 192.0, 0.0, 0.0, 0.0, 0.0, 0.0, 0.0, 0.0, 0.0, 0.0, 1.677706088412745E9, 0.0, 2023-03-01 13:28:08.412
225.0, 29640.335397760322, 13723.47935718052, 0.0, -187500.02235174447, 0.0, 0.0, 0.0, -187500.02235174447, -0.222, 0.084, -0.982, 192.0, 0.0, 0.0, 0.0, 0.0, 0.0, 0.0, 0.0, 0.0, 0.0, 1.67770608841276E9, 0.0, 2023-03-01 13:28:08.412
226.0, 29676.656982500197, 13786.734793989039, 0.0, -187500.02235174447, 0.0, 0.0, 0.0, -187500.02235174447, -0.222, 0.084, -0.982, 192.0, 0.0, 0.0, 0.0, 0.0, 0.0, 0.0, 0.0, 0.0, 0.0, 1.677706088420971E9, 0.0, 2023-03-01 13:28:08.420
227.0, 29698.561692066396, 13816.462614114596, 0.0, -187500.02235174447, 0.0, 0.0, 0.0, -187500.02235174447, -0.222, 0.084, -0.982, 192.0, 0.0, 0.0, 0.0, 0.0, 0.0, 0.0, 0.0, 0.0, 0.0, 1.677706088420984E9, 0.0, 2023-03-01 13:28:08.420
228.0, 29670.331438819343, 13760.58325297633, 0.0, -187500.02235174447, 0.0, 0.0, 0.0, -187500.02235174447, -0.222, 0.084, -0.982, 192.0, 0.0, 0.0, 0.0, 0.0, 0.0, 0.0, 0.0, 0.0, 0.0, 1.677706088428991E9, 0.0, 2023-03-01 13:28:08.428
229.0, 29639.329569259833, 13725.491014181498, 0.0, -187500.02235174447, 0.0, 0.0, 0.0, -187500.02235174447, -0.222, 0.084, -0.982, 192.0, 0.0, 0.0, 0.0, 0.0, 0.0, 0.0, 0.0, 0.0, 0.0, 1.677706088429E9, 0.0, 2023-03-01 13:28:08.429
230.0, 29671.001991153003, 13781.482134042042, 0.0, -187500.02235174447, 0.0, 0.0, 0.0, -187500.02235174447, -0.222, 0.084, -0.982, 192.0, 0.0, 0.0, 0.0, 0.0, 0.0, 0.0, 0.0, 0.0, 0.0, 1.677706088435917E9, 0.0, 2023-03-01 13:28:08.435
231.0, 29700.953328723113, 13819.658913571706, 0.0, -187500.02235174447, 0.0, 0.0, 0.0, -187500.02235174447, -0.22, 0.078, -0.986, 192.0, 249.0, 32.0, 2.0, 112.0, 225.0, 48.0, 0.0, 0.0, 0.0, 1.677706088435937E9, 0.0, 2023-03-01 13:28:08.435
232.0, 29675.82996795535, 13773.323747315855, 0.0, -187500.02235174447, 0.0, 0.0, 0.0, -187500.02235174447, -0.22, 0.078, -0.986, 192.0, 0.0, 0.0, 0.0, 0.0, 0.0, 0.0, 0.0, 0.0, 0.0, 1.677706088443825E9, 0.0, 2023-03-01 13:28:08.443
233.0, 29646.43742399662, 13722.652342635673, 0.0, -187500.02235174447, 0.0, 0.0, 0.0, -187500.02235174447, -0.22, 0.078, -0.986, 192.0, 0.0, 0.0, 0.0, 0.0, 0.0, 0.0, 0.0, 0.0, 0.0, 1.677706088443841E9, 0.0, 2023-03-01 13:28:08.443
234.0, 29658.306200302388, 13757.163436074667, 0.0, -187500.02235174447, 0.0, 0.0, 0.0, -187500.02235174447, -0.22, 0.078, -0.986, 192.0, 0.0, 0.0, 0.0, 0.0, 0.0, 0.0, 0.0, 0.0, 0.0, 1.677706088451525E9, 0.0, 2023-03-01 13:28:08.451
235.0, 29694.58308155335, 13803.386843608243, 0.0, -187500.02235174447, 0.0, 0.0, 0.0, -187500.02235174447, -0.22, 0.078, -0.986, 192.0, 0.0, 0.0, 0.0, 0.0, 0.0, 0.0, 0.0, 0.0, 0.0, 1.67770608845154E9, 0.0, 2023-03-01 13:28:08.451
236.0, 29679.987392424035, 13771.490904270519, 0.0, -187500.02235174447, 0.0, 0.0, 0.0, -187500.02235174447, -0.22, 0.078, -0.986, 192.0, 0.0, 0.0, 0.0, 0.0, 0.0, 0.0, 0.0, 0.0, 0.0, 1.677706088458703E9, 0.0, 2023-03-01 13:28:08.458
237.0, 29632.333473245322, 13720.774796101428, 0.0, -187500.02235174447, 0.0, 0.0, 0.0, -187500.02235174447, -0.22, 0.078, -0.986, 192.0, 0.0, 0.0, 0.0, 0.0, 0.0, 0.0, 0.0, 0.0, 0.0, 1.677706088458719E9, 0.0, 2023-03-01 13:28:08.458
238.0, 29638.793127392906, 13747.283965025421, 0.0, -187500.02235174447, 0.0, 0.0, 0.0, -187500.02235174447, -0.22, 0.078, -0.986, 192.0, 0.0, 0.0, 0.0, 0.0, 0.0, 0.0, 0.0, 0.0, 0.0, 1.677706088465254E9, 0.0, 2023-03-01 13:28:08.465
239.0, 29681.037924413435, 13812.953390235114, 0.0, -187500.02235174447, 0.0, 0.0, 0.0, -187500.02235174447, -0.22, 0.078, -0.986, 192.0, 0.0, 0.0, 0.0, 0.0, 0.0, 0.0, 0.0, 0.0, 0.0, 1.677706088473053E9, 0.0, 2023-03-01 13:28:08.473
240.0, 29676.031133655448, 13789.707576001594, 0.0, -187500.02235174447, 0.0, 0.0, 0.0, -187500.02235174447, -0.22, 0.078, -0.986, 192.0, 0.0, 0.0, 0.0, 0.0, 0.0, 0.0, 0.0, 0.0, 0.0, 1.677706088473098E9, 0.0, 2023-03-01 13:28:08.473
241.0, 29643.285828028424, 13725.33455197031, 0.0, -187500.02235174447, 0.0, 0.0, 0.0, -187500.02235174447, -0.224, 0.08, -0.986, 192.0, 249.0, 0.0, 2.0, 128.0, 225.0, 48.0, 0.0, 0.0, 0.0, 1.677706088481155E9, 0.0, 2023-03-01 13:28:08.481
242.0, 29651.377159521242, 13745.562880702362, 0.0, -187500.02235174447, 0.0, 0.0, 0.0, -187500.02235174447, -0.224, 0.08, -0.986, 192.0, 0.0, 0.0, 0.0, 0.0, 0.0, 0.0, 0.0, 0.0, 0.0, 1.677706088481181E9, 0.0, 2023-03-01 13:28:08.481
243.0, 29692.370258852276, 13806.940770976636, 0.0, -187500.02235174447, 0.0, 0.0, 0.0, -187500.02235174447, -0.224, 0.08, -0.986, 192.0, 0.0, 0.0, 0.0, 0.0, 0.0, 0.0, 0.0, 0.0, 0.0, 1.677706088488325E9, 0.0, 2023-03-01 13:28:08.488
244.0, 29694.091343175336, 13800.63757904024, 0.0, -187500.02235174447, 0.0, 0.0, 0.0, -187500.02235174447, -0.224, 0.08, -0.986, 192.0, 0.0, 0.0, 0.0, 0.0, 0.0, 0.0, 0.0, 0.0, 0.0, 1.67770608848834E9, 0.0, 2023-03-01 13:28:08.488
245.0, 29650.505441487487, 13738.298563754388, 0.0, -187500.02235174447, 0.0, 0.0, 0.0, -187500.02235174447, -0.224, 0.08, -0.986, 192.0, 0.0, 0.0, 0.0, 0.0, 0.0, 0.0, 0.0, 0.0, 0.0, 1.677706088495678E9, 0.0, 2023-03-01 13:28:08.495
246.0, 29643.464641984065, 13729.514328183453, 0.0, -187500.02235174447, 0.0, 0.0, 0.0, -187500.02235174447, -0.224, 0.08, -0.986, 192.0, 0.0, 0.0, 0.0, 0.0, 0.0, 0.0, 0.0, 0.0, 0.0, 1.677706088495692E9, 0.0, 2023-03-01 13:28:08.495
247.0, 29679.249784857013, 13793.172096392167, 0.0, -187500.02235174447, 0.0, 0.0, 0.0, -187500.02235174447, -0.224, 0.08, -0.986, 192.0, 0.0, 0.0, 0.0, 0.0, 0.0, 0.0, 0.0, 0.0, 0.0, 1.6777060885037E9, 0.0, 2023-03-01 13:28:08.503
248.0, 29678.579232523352, 13799.251770884011, 0.0, -187500.02235174447, 0.0, 0.0, 0.0, -187500.02235174447, -0.224, 0.08, -0.986, 192.0, 0.0, 0.0, 0.0, 0.0, 0.0, 0.0, 0.0, 0.0, 0.0, 1.677706088503712E9, 0.0, 2023-03-01 13:28:08.503
249.0, 29645.096319329303, 13743.931203357126, 0.0, -187500.02235174447, 0.0, 0.0, 0.0, -187500.02235174447, -0.224, 0.08, -0.986, 192.0, 0.0, 0.0, 0.0, 0.0, 0.0, 0.0, 0.0, 0.0, 0.0, 1.677706088511838E9, 0.0, 2023-03-01 13:28:08.511
250.0, 29627.81842086535, 13719.120767011735, 0.0, -187500.02235174447, 0.0, 0.0, 0.0, -187500.02235174447, -0.224, 0.08, -0.986, 192.0, 0.0, 0.0, 0.0, 0.0, 0.0, 0.0, 0.0, 0.0, 0.0, 1.677706088511847E9, 0.0, 2023-03-01 13:28:08.511
251.0, 29666.308124817388, 13779.291663085422, 0.0, -187500.02235174447, 0.0, 0.0, 0.0, -187500.02235174447, -0.23, 0.078, -0.986, 192.0, 248.0, 208.0, 2.0, 112.0, 225.0, 48.0, 0.0, 0.0, 0.0, 1.677706088518403E9, 0.0, 2023-03-01 13:28:08.518
252.0, 29698.27111938848, 13809.69003554464, 0.0, -187500.02235174447, 0.0, 0.0, 0.0, -187500.02235174447, -0.23, 0.078, -0.986, 192.0, 0.0, 0.0, 0.0, 0.0, 0.0, 0.0, 0.0, 0.0, 0.0, 1.67770608851844E9, 0.0, 2023-03-01 13:28:08.518
253.0, 29672.432502798143, 13765.00889837848, 0.0, -187500.02235174447, 0.0, 0.0, 0.0, -187500.02235174447, -0.23, 0.078, -0.986, 192.0, 0.0, 0.0, 0.0, 0.0, 0.0, 0.0, 0.0, 0.0, 0.0, 1.677706088525286E9, 0.0, 2023-03-01 13:28:08.525
254.0, 29630.902961600183, 13729.916659583649, 0.0, -187500.02235174447, 0.0, 0.0, 0.0, -187500.02235174447, -0.23, 0.078, -0.986, 192.0, 0.0, 0.0, 0.0, 0.0, 0.0, 0.0, 0.0, 0.0, 0.0, 1.677706088525302E9, 0.0, 2023-03-01 13:28:08.525
255.0, 29657.68035145764, 13769.970985647558, 0.0, -187500.02235174447, 0.0, 0.0, 0.0, -187500.02235174447, -0.23, 0.078, -0.986, 192.0, 0.0, 0.0, 0.0, 0.0, 0.0, 0.0, 0.0, 0.0, 0.0, 1.677706088534829E9, 0.0, 2023-03-01 13:28:08.534
0.0, 29686.715267505082, 13807.477212843563, 0.0, -187500.02235174447, 0.0, 0.0, 0.0, -187500.02235174447, -0.23, 0.078, -0.986, 192.0, 0.0, 0.0, 0.0, 0.0, 0.0, 0.0, 0.0, 0.0, 0.0, 1.677706088541383E9, 0.0, 2023-03-01 13:28:08.541
1.0, 29660.541374747918, 13763.712497200073, 0.0, -187500.02235174447, 0.0, 0.0, 0.0, -187500.02235174447, -0.23, 0.078, -0.986, 192.0, 0.0, 0.0, 0.0, 0.0, 0.0, 0.0, 0.0, 0.0, 0.0, 1.677706088541392E9, 0.0, 2023-03-01 13:28:08.541
2.0, 29620.241179495002, 13711.81174657485, 0.0, -187500.02235174447, 0.0, 0.0, 0.0, -187500.02235174447, -0.23, 0.078, -0.986, 192.0, 0.0, 0.0, 0.0, 0.0, 0.0, 0.0, 0.0, 0.0, 0.0, 1.67770608854801E9, 0.0, 2023-03-01 13:28:08.548
3.0, 29640.938894860614, 13749.407380748677, 0.0, -187500.02235174447, 0.0, 0.0, 0.0, -187500.02235174447, -0.23, 0.078, -0.986, 192.0, 0.0, 0.0, 0.0, 0.0, 0.0, 0.0, 0.0, 0.0, 0.0, 1.677706088548021E9, 0.0, 2023-03-01 13:28:08.548
4.0, 29683.653078514708, 13798.916494717181, 0.0, -187500.02235174447, 0.0, 0.0, 0.0, -187500.02235174447, -0.23, 0.078, -0.986, 192.0, 0.0, 0.0, 0.0, 0.0, 0.0, 0.0, 0.0, 0.0, 0.0, 1.677706088555927E9, 0.0, 2023-03-01 13:28:08.555
5.0, 29665.458758528086, 13772.809657193382, 0.0, -187500.02235174447, 0.0, 0.0, 0.0, -187500.02235174447, -0.222, 0.07200000000000001, -0.984, 192.0, 249.0, 16.0, 2.0, 64.0, 225.0, 64.0, 0.0, 0.0, 0.0, 1.677706088555936E9, 0.0, 2023-03-01 13:28:08.555
6.0, 29622.454002196075, 13717.399682688676, 0.0, -187500.02235174447, 0.0, 0.0, 0.0, -187500.02235174447, -0.222, 0.07200000000000001, -0.984, 192.0, 0.0, 0.0, 0.0, 0.0, 0.0, 0.0, 0.0, 0.0, 0.0, 1.677706088564079E9, 0.0, 2023-03-01 13:28:08.564
7.0, 29630.00889182197, 13736.95745908707, 0.0, -187500.02235174447, 0.0, 0.0, 0.0, -187500.02235174447, -0.222, 0.07200000000000001, -0.984, 192.0, 0.0, 0.0, 0.0, 0.0, 0.0, 0.0, 0.0, 0.0, 0.0, 1.677706088564099E9, 0.0, 2023-03-01 13:28:08.564
8.0, 29677.036962155937, 13797.754204005505, 0.0, -187500.02235174447, 0.0, 0.0, 0.0, -187500.02235174447, -0.222, 0.07200000000000001, -0.984, 192.0, 0.0, 0.0, 0.0, 0.0, 0.0, 0.0, 0.0, 0.0, 0.0, 1.677706088571082E9, 0.0, 2023-03-01 13:28:08.571
9.0, 29664.698799216607, 13775.469514783565, 0.0, -187500.02235174447, 0.0, 0.0, 0.0, -187500.02235174447, -0.222, 0.07200000000000001, -0.984, 192.0, 0.0, 0.0, 0.0, 0.0, 0.0, 0.0, 0.0, 0.0, 0.0, 1.677706088571097E9, 0.0, 2023-03-01 13:28:08.571
10.0, 29621.068194039846, 13722.987618802503, 0.0, -187500.02235174447, 0.0, 0.0, 0.0, -187500.02235174447, -0.222, 0.07200000000000001, -0.984, 192.0, 0.0, 0.0, 0.0, 0.0, 0.0, 0.0, 0.0, 0.0, 0.0, 1.677706088578644E9, 0.0, 2023-03-01 13:28:08.578
11.0, 29612.66393812465, 13728.28498223841, 0.0, -187500.02235174447, 0.0, 0.0, 0.0, -187500.02235174447, -0.222, 0.07200000000000001, -0.984, 192.0, 0.0, 0.0, 0.0, 0.0, 0.0, 0.0, 0.0, 0.0, 0.0, 1.677706088578658E9, 0.0, 2023-03-01 13:28:08.578
12.0, 29651.310104287877, 13785.907779444193, 0.0, -187500.02235174447, 0.0, 0.0, 0.0, -187500.02235174447, -0.222, 0.07200000000000001, -0.984, 192.0, 0.0, 0.0, 0.0, 0.0, 0.0, 0.0, 0.0, 0.0, 0.0, 1.677706088586675E9, 0.0, 2023-03-01 13:28:08.586
13.0, 29661.524851503953, 13779.023442151958, 0.0, -187500.02235174447, 0.0, 0.0, 0.0, -187500.02235174447, -0.222, 0.07200000000000001, -0.984, 192.0, 0.0, 0.0, 0.0, 0.0, 0.0, 0.0, 0.0, 0.0, 0.0, 1.677706088586687E9, 0.0, 2023-03-01 13:28:08.586
14.0, 29623.728051630027, 13720.461871679054, 0.0, -187500.02235174447, 0.0, 0.0, 0.0, -187500.02235174447, -0.222, 0.07200000000000001, -0.984, 192.0, 0.0, 0.0, 0.0, 0.0, 0.0, 0.0, 0.0, 0.0, 0.0, 1.677706088593636E9, 0.0, 2023-03-01 13:28:08.593
15.0, 29616.754307359974, 13716.66207512165, 0.0, -187500.02235174447, 0.0, 0.0, 0.0, -187500.02235174447, -0.226, 0.07, -0.982, 192.0, 248.0, 240.0, 2.0, 48.0, 225.0, 80.0, 0.0, 0.0, 0.0, 1.677706088600738E9, 0.0, 2023-03-01 13:28:08.600
16.0, 29668.63270624074, 13786.198352122112, 0.0, -187500.02235174447, 0.0, 0.0, 0.0, -187500.02235174447, -0.226, 0.07, -0.982, 192.0, 0.0, 0.0, 0.0, 0.0, 0.0, 0.0, 0.0, 0.0, 0.0, 1.677706088600748E9, 0.0, 2023-03-01 13:28:08.600
17.0, 29688.101075661314, 13799.765861006483, 0.0, -187500.02235174447, 0.0, 0.0, 0.0, -187500.02235174447, -0.226, 0.07, -0.982, 192.0, 0.0, 0.0, 0.0, 0.0, 0.0, 0.0, 0.0, 0.0, 0.0, 1.677706088608216E9, 0.0, 2023-03-01 13:28:08.608
18.0, 29640.357749504776, 13747.462778981064, 0.0, -187500.02235174447, 0.0, 0.0, 0.0, -187500.02235174447, -0.226, 0.07, -0.982, 192.0, 0.0, 0.0, 0.0, 0.0, 0.0, 0.0, 0.0, 0.0, 0.0, 1.677706088608239E9, 0.0, 2023-03-01 13:28:08.608
19.0, 29613.692118369596, 13717.645551877684, 0.0, -187500.02235174447, 0.0, 0.0, 0.0, -187500.02235174447, -0.226, 0.07, -0.982, 192.0, 0.0, 0.0, 0.0, 0.0, 0.0, 0.0, 0.0, 0.0, 0.0, 1.677706088616284E9, 0.0, 2023-03-01 13:28:08.616
20.0, 29652.181822321636, 13765.970023390058, 0.0, -187500.02235174447, 0.0, 0.0, 0.0, -187500.02235174447, -0.226, 0.07, -0.982, 192.0, 0.0, 0.0, 0.0, 0.0, 0.0, 0.0, 0.0, 0.0, 0.0, 1.677706088616304E9, 0.0, 2023-03-01 13:28:08.616
21.0, 29689.665697773184, 13797.642445283229, 0.0, -187500.02235174447, 0.0, 0.0, 0.0, -187500.02235174447, -0.226, 0.07, -0.982, 192.0, 0.0, 0.0, 0.0, 0.0, 0.0, 0.0, 0.0, 0.0, 0.0, 1.677706088624315E9, 0.0, 2023-03-01 13:28:08.624
22.0, 29650.10311008729, 13746.836930136316, 0.0, -187500.02235174447, 0.0, 0.0, 0.0, -187500.02235174447, -0.226, 0.07, -0.982, 192.0, 0.0, 0.0, 0.0, 0.0, 0.0, 0.0, 0.0, 0.0, 0.0, 1.677706088624328E9, 0.0, 2023-03-01 13:28:08.624
23.0, 29605.690193854596, 13706.156755227657, 0.0, -187500.02235174447, 0.0, 0.0, 0.0, -187500.02235174447, -0.226, 0.07, -0.982, 192.0, 0.0, 0.0, 0.0, 0.0, 0.0, 0.0, 0.0, 0.0, 0.0, 1.677706088632329E9, 0.0, 2023-03-01 13:28:08.632
24.0, 29631.66292091166, 13749.206215048578, 0.0, -187500.02235174447, 0.0, 0.0, 0.0, -187500.02235174447, -0.226, 0.07, -0.982, 192.0, 0.0, 0.0, 0.0, 0.0, 0.0, 0.0, 0.0, 0.0, 0.0, 1.677706088632341E9, 0.0, 2023-03-01 13:28:08.632
25.0, 29674.310049332387, 13791.652177769207, 0.0, -187500.02235174447, 0.0, 0.0, 0.0, -187500.02235174447, -0.224, 0.068, -0.988, 192.0, 249.0, 0.0, 2.0, 32.0, 225.0, 32.0, 0.0, 0.0, 0.0, 1.677706088638804E9, 0.0, 2023-03-01 13:28:08.638
26.0, 29657.948572391102, 13758.415133764165, 0.0, -187500.02235174447, 0.0, 0.0, 0.0, -187500.02235174447, -0.224, 0.068, -0.988, 192.0, 0.0, 0.0, 0.0, 0.0, 0.0, 0.0, 0.0, 0.0, 0.0, 1.677706088638813E9, 0.0, 2023-03-01 13:28:08.638
27.0, 29614.72029861454, 13706.961418028048, 0.0, -187500.02235174447, 0.0, 0.0, 0.0, -187500.02235174447, -0.224, 0.068, -0.988, 192.0, 0.0, 0.0, 0.0, 0.0, 0.0, 0.0, 0.0, 0.0, 0.0, 1.67770608864697E9, 0.0, 2023-03-01 13:28:08.646
28.0, 29627.639606909706, 13741.561918444862, 0.0, -187500.02235174447, 0.0, 0.0, 0.0, -187500.02235174447, -0.224, 0.068, -0.988, 192.0, 0.0, 0.0, 0.0, 0.0, 0.0, 0.0, 0.0, 0.0, 0.0, 1.677706088646989E9, 0.0, 2023-03-01 13:28:08.646
29.0, 29675.472340044063, 13801.218724396078, 0.0, -187500.02235174447, 0.0, 0.0, 0.0, -187500.02235174447, -0.224, 0.068, -0.988, 192.0, 0.0, 0.0, 0.0, 0.0, 0.0, 0.0, 0.0, 0.0, 0.0, 1.677706088653026E9, 0.0, 2023-03-01 13:28:08.653
30.0, 29658.932049147137, 13771.401497292698, 0.0, -187500.02235174447, 0.0, 0.0, 0.0, -187500.02235174447, -0.224, 0.068, -0.988, 192.0, 0.0, 0.0, 0.0, 0.0, 0.0, 0.0, 0.0, 0.0, 0.0, 1.677706088660536E9, 0.0, 2023-03-01 13:28:08.660
31.0, 29618.497743427488, 13710.872973307727, 0.0, -187500.02235174447, 0.0, 0.0, 0.0, -187500.02235174447, -0.224, 0.068, -0.988, 192.0, 0.0, 0.0, 0.0, 0.0, 0.0, 0.0, 0.0, 0.0, 0.0, 1.677706088660551E9, 0.0, 2023-03-01 13:28:08.660
32.0, 29630.321816244345, 13736.331610242321, 0.0, -187500.02235174447, 0.0, 0.0, 0.0, -187500.02235174447, -0.224, 0.068, -0.988, 192.0, 0.0, 0.0, 0.0, 0.0, 0.0, 0.0, 0.0, 0.0, 0.0, 1.677706088668533E9, 0.0, 2023-03-01 13:28:08.668
33.0, 29666.285773072934, 13791.652177769207, 0.0, -187500.02235174447, 0.0, 0.0, 0.0, -187500.02235174447, -0.224, 0.068, -0.988, 192.0, 0.0, 0.0, 0.0, 0.0, 0.0, 0.0, 0.0, 0.0, 0.0, 1.677706088668564E9, 0.0, 2023-03-01 13:28:08.668
34.0, 29658.932049147137, 13774.486038027531, 0.0, -187500.02235174447, 0.0, 0.0, 0.0, -187500.02235174447, -0.224, 0.068, -0.988, 192.0, 0.0, 0.0, 0.0, 0.0, 0.0, 0.0, 0.0, 0.0, 0.0, 1.677706088676544E9, 0.0, 2023-03-01 13:28:08.676
35.0, 29621.2917114844, 13709.2859994514, 0.0, -187500.02235174447, 0.0, 0.0, 0.0, -187500.02235174447, -0.222, 0.07, -0.986, 192.0, 249.0, 16.0, 2.0, 48.0, 225.0, 48.0, 0.0, 0.0, 0.0, 1.677706088676555E9, 0.0, 2023-03-01 13:28:08.676
36.0, 29618.698909127583, 13709.643627362684, 0.0, -187500.02235174447, 0.0, 0.0, 0.0, -187500.02235174447, -0.222, 0.07, -0.986, 192.0, 0.0, 0.0, 0.0, 0.0, 0.0, 0.0, 0.0, 0.0, 0.0, 1.677706088683202E9, 0.0, 2023-03-01 13:28:08.683
37.0, 29653.63468571123, 13770.798000192404, 0.0, -187500.02235174447, 0.0, 0.0, 0.0, -187500.02235174447, -0.222, 0.07, -0.986, 192.0, 0.0, 0.0, 0.0, 0.0, 0.0, 0.0, 0.0, 0.0, 0.0, 1.67770608868321E9, 0.0, 2023-03-01 13:28:08.683
38.0, 29658.82029042486, 13779.470477041064, 0.0, -187500.02235174447, 0.0, 0.0, 0.0, -187500.02235174447, -0.222, 0.07, -0.986, 192.0, 0.0, 0.0, 0.0, 0.0, 0.0, 0.0, 0.0, 0.0, 0.0, 1.677706088691225E9, 0.0, 2023-03-01 13:28:08.691
39.0, 29625.62794990873, 13730.207232261568, 0.0, -187500.02235174447, 0.0, 0.0, 0.0, -187500.02235174447, -0.222, 0.07, -0.986, 192.0, 0.0, 0.0, 0.0, 0.0, 0.0, 0.0, 0.0, 0.0, 0.0, 1.677706088691246E9, 0.0, 2023-03-01 13:28:08.691
40.0, 29615.212036992558, 13712.392891930687, 0.0, -187500.02235174447, 0.0, 0.0, 0.0, -187500.02235174447, -0.222, 0.07, -0.986, 192.0, 0.0, 0.0, 0.0, 0.0, 0.0, 0.0, 0.0, 0.0, 0.0, 1.677706088699136E9, 0.0, 2023-03-01 13:28:08.699
41.0, 29648.62789495324, 13765.992375134514, 0.0, -187500.02235174447, 0.0, 0.0, 0.0, -187500.02235174447, -0.222, 0.07, -0.986, 192.0, 0.0, 0.0, 0.0, 0.0, 0.0, 0.0, 0.0, 0.0, 0.0, 1.677706088699154E9, 0.0, 2023-03-01 13:28:08.699
42.0, 29669.213851596578, 13790.266369612977, 0.0, -187500.02235174447, 0.0, 0.0, 0.0, -187500.02235174447, -0.222, 0.07, -0.986, 192.0, 0.0, 0.0, 0.0, 0.0, 0.0, 0.0, 0.0, 0.0, 0.0, 1.677706088706247E9, 0.0, 2023-03-01 13:28:08.706
43.0, 29637.988464592516, 13737.67271490964, 0.0, -187500.02235174447, 0.0, 0.0, 0.0, -187500.02235174447, -0.222, 0.07, -0.986, 192.0, 0.0, 0.0, 0.0, 0.0, 0.0, 0.0, 0.0, 0.0, 0.0, 1.677706088706261E9, 0.0, 2023-03-01 13:28:08.706
44.0, 29604.90788279866, 13705.933237783103, 0.0, -187500.02235174447, 0.0, 0.0, 0.0, -187500.02235174447, -0.222, 0.07, -0.986, 192.0, 0.0, 0.0, 0.0, 0.0, 0.0, 0.0, 0.0, 0.0, 0.0, 1.6777060887128E9, 0.0, 2023-03-01 13:28:08.712
45.0, 29642.458813483576, 13759.1974448201, 0.0, -187500.02235174447, 0.0, 0.0, 0.0, -187500.02235174447, -0.226, 0.07200000000000001, -0.986, 192.0, 248.0, 240.0, 2.0, 64.0, 225.0, 48.0, 0.0, 0.0, 0.0, 1.677706088720864E9, 0.0, 2023-03-01 13:28:08.720
46.0, 29675.695857488616, 13787.025366666958, 0.0, -187500.02235174447, 0.0, 0.0, 0.0, -187500.02235174447, -0.226, 0.07200000000000001, -0.986, 192.0, 0.0, 0.0, 0.0, 0.0, 0.0, 0.0, 0.0, 0.0, 0.0, 1.677706088720873E9, 0.0, 2023-03-01 13:28:08.720
47.0, 29639.173107048646, 13740.086703310813, 0.0, -187500.02235174447, 0.0, 0.0, 0.0, -187500.02235174447, -0.226, 0.07200000000000001, -0.986, 192.0, 0.0, 0.0, 0.0, 0.0, 0.0, 0.0, 0.0, 0.0, 0.0, 1.677706088728873E9, 0.0, 2023-03-01 13:28:08.728
48.0, 29600.549292629876, 13702.75929007045, 0.0, -187500.02235174447, 0.0, 0.0, 0.0, -187500.02235174447, -0.226, 0.07200000000000001, -0.986, 192.0, 0.0, 0.0, 0.0, 0.0, 0.0, 0.0, 0.0, 0.0, 0.0, 1.67770608872889E9, 0.0, 2023-03-01 13:28:08.728
49.0, 29638.167278548157, 13753.989488362015, 0.0, -187500.02235174447, 0.0, 0.0, 0.0, -187500.02235174447, -0.226, 0.07200000000000001, -0.986, 192.0, 0.0, 0.0, 0.0, 0.0, 0.0, 0.0, 0.0, 0.0, 0.0, 1.67770608873697E9, 0.0, 2023-03-01 13:28:08.736
50.0, 29675.4052848107, 13792.099212658313, 0.0, -187500.02235174447, 0.0, 0.0, 0.0, -187500.02235174447, -0.226, 0.07200000000000001, -0.986, 192.0, 0.0, 0.0, 0.0, 0.0, 0.0, 0.0, 0.0, 0.0, 0.0, 1.677706088736985E9, 0.0, 2023-03-01 13:28:08.736
51.0, 29653.902906644693, 13754.011840106468, 0.0, -187500.02235174447, 0.0, 0.0, 0.0, -187500.02235174447, -0.226, 0.07200000000000001, -0.986, 192.0, 0.0, 0.0, 0.0, 0.0, 0.0, 0.0, 0.0, 0.0, 0.0, 1.677706088743378E9, 0.0, 2023-03-01 13:28:08.743
52.0, 29613.848580580783, 13704.122746482224, 0.0, -187500.02235174447, 0.0, 0.0, 0.0, -187500.02235174447, -0.226, 0.07200000000000001, -0.986, 192.0, 0.0, 0.0, 0.0, 0.0, 0.0, 0.0, 0.0, 0.0, 0.0, 1.677706088743393E9, 0.0, 2023-03-01 13:28:08.743
53.0, 29631.1935342781, 13734.007028818969, 0.0, -187500.02235174447, 0.0, 0.0, 0.0, -187500.02235174447, -0.226, 0.07200000000000001, -0.986, 192.0, 0.0, 0.0, 0.0, 0.0, 0.0, 0.0, 0.0, 0.0, 0.0, 1.677706088751384E9, 0.0, 2023-03-01 13:28:08.751
54.0, 29669.996162652515, 13786.041889910925, 0.0, -187500.02235174447, 0.0, 0.0, 0.0, -187500.02235174447, -0.226, 0.07200000000000001, -0.986, 192.0, 0.0, 0.0, 0.0, 0.0, 0.0, 0.0, 0.0, 0.0, 0.0, 1.677706088751394E9, 0.0, 2023-03-01 13:28:08.751
55.0, 29654.26053455598, 13763.15370358869, 0.0, -187500.02235174447, 0.0, 0.0, 0.0, -187500.02235174447, -0.226, 0.07200000000000001, -0.986, 192.0, 0.0, 0.0, 0.0, 0.0, 0.0, 0.0, 0.0, 0.0, 0.0, 1.677706088759415E9, 0.0, 2023-03-01 13:28:08.759
56.0, 29614.18385674761, 13707.944894784081, 0.0, -187500.02235174447, 0.0, 0.0, 0.0, -187500.02235174447, -0.232, 0.066, -0.984, 192.0, 248.0, 192.0, 2.0, 16.0, 225.0, 64.0, 0.0, 0.0, 0.0, 1.677706088759427E9, 0.0, 2023-03-01 13:28:08.759
57.0, 29623.48218244102, 13725.088682781301, 0.0, -187500.02235174447, 0.0, 0.0, 0.0, -187500.02235174447, -0.232, 0.066, -0.984, 192.0, 0.0, 0.0, 0.0, 0.0, 0.0, 0.0, 0.0, 0.0, 0.0, 1.67770608876594E9, 0.0, 2023-03-01 13:28:08.765
58.0, 29673.863014443283, 13791.607474280296, 0.0, -187500.02235174447, 0.0, 0.0, 0.0, -187500.02235174447, -0.232, 0.066, -0.984, 192.0, 0.0, 0.0, 0.0, 0.0, 0.0, 0.0, 0.0, 0.0, 0.0, 1.677706088765949E9, 0.0, 2023-03-01 13:28:08.765
59.0, 29671.404322553197, 13790.422831824164, 0.0, -187500.02235174447, 0.0, 0.0, 0.0, -187500.02235174447, -0.232, 0.066, -0.984, 192.0, 0.0, 0.0, 0.0, 0.0, 0.0, 0.0, 0.0, 0.0, 0.0, 1.677706088773239E9, 0.0, 2023-03-01 13:28:08.773
60.0, 29630.05359531088, 13722.562935657852, 0.0, -187500.02235174447, 0.0, 0.0, 0.0, -187500.02235174447, -0.232, 0.066, -0.984, 192.0, 0.0, 0.0, 0.0, 0.0, 0.0, 0.0, 0.0, 0.0, 0.0, 1.677706088773277E9, 0.0, 2023-03-01 13:28:08.773
61.0, 29625.784412119916, 13721.37829320172, 0.0, -187500.02235174447, 0.0, 0.0, 0.0, -187500.02235174447, -0.232, 0.066, -0.984, 192.0, 0.0, 0.0, 0.0, 0.0, 0.0, 0.0, 0.0, 0.0, 0.0, 1.677706088781181E9, 0.0, 2023-03-01 13:28:08.781
62.0, 29657.16626133517, 13779.06814564087, 0.0, -187500.02235174447, 0.0, 0.0, 0.0, -187500.02235174447, -0.232, 0.066, -0.984, 192.0, 0.0, 0.0, 0.0, 0.0, 0.0, 0.0, 0.0, 0.0, 0.0, 1.677706088789165E9, 0.0, 2023-03-01 13:28:08.789
63.0, 29668.49859577401, 13783.180866620645, 0.0, -187500.02235174447, 0.0, 0.0, 0.0, -187500.02235174447, -0.232, 0.066, -0.984, 192.0, 0.0, 0.0, 0.0, 0.0, 0.0, 0.0, 0.0, 0.0, 0.0, 1.677706088789181E9, 0.0, 2023-03-01 13:28:08.789
64.0, 29630.902961600183, 13727.86029909376, 0.0, -187500.02235174447, 0.0, 0.0, 0.0, -187500.02235174447, -0.232, 0.066, -0.984, 192.0, 0.0, 0.0, 0.0, 0.0, 0.0, 0.0, 0.0, 0.0, 0.0, 1.677706088795833E9, 0.0, 2023-03-01 13:28:08.795
65.0, 29605.75724908796, 13712.035264019403, 0.0, -187500.02235174447, 0.0, 0.0, 0.0, -187500.02235174447, -0.232, 0.066, -0.984, 192.0, 0.0, 0.0, 0.0, 0.0, 0.0, 0.0, 0.0, 0.0, 0.0, 1.677706088795843E9, 0.0, 2023-03-01 13:28:08.795
66.0, 29649.007874608982, 13776.073011883856, 0.0, -187500.02235174447, 0.0, 0.0, 0.0, -187500.02235174447, -0.226, 0.07, -0.986, 192.0, 248.0, 240.0, 2.0, 48.0, 225.0, 48.0, 0.0, 0.0, 0.0, 1.677706088803671E9, 0.0, 2023-03-01 13:28:08.803
67.0, 29685.418866326676, 13803.967988964081, 0.0, -187500.02235174447, 0.0, 0.0, 0.0, -187500.02235174447, -0.226, 0.07, -0.986, 192.0, 0.0, 0.0, 0.0, 0.0, 0.0, 0.0, 0.0, 0.0, 0.0, 1.67770608880368E9, 0.0, 2023-03-01 13:28:08.803
68.0, 29652.941781633115, 13753.721267428551, 0.0, -187500.02235174447, 0.0, 0.0, 0.0, -187500.02235174447, -0.226, 0.07, -0.986, 192.0, 0.0, 0.0, 0.0, 0.0, 0.0, 0.0, 0.0, 0.0, 0.0, 1.677706088811833E9, 0.0, 2023-03-01 13:28:08.811
69.0, 29615.681423626116, 13713.979865787014, 0.0, -187500.02235174447, 0.0, 0.0, 0.0, -187500.02235174447, -0.226, 0.07, -0.986, 192.0, 0.0, 0.0, 0.0, 0.0, 0.0, 0.0, 0.0, 0.0, 0.0, 1.677706088811852E9, 0.0, 2023-03-01 13:28:08.811
70.0, 29639.217810537557, 13759.488017498019, 0.0, -187500.02235174447, 0.0, 0.0, 0.0, -187500.02235174447, -0.226, 0.07, -0.986, 192.0, 0.0, 0.0, 0.0, 0.0, 0.0, 0.0, 0.0, 0.0, 0.0, 1.677706088818938E9, 0.0, 2023-03-01 13:28:08.818
71.0, 29670.06321788588, 13800.481116829053, 0.0, -187500.02235174447, 0.0, 0.0, 0.0, -187500.02235174447, -0.226, 0.07, -0.986, 192.0, 0.0, 0.0, 0.0, 0.0, 0.0, 0.0, 0.0, 0.0, 0.0, 1.677706088818965E9, 0.0, 2023-03-01 13:28:08.818
72.0, 29651.846546154804, 13764.360697789276, 0.0, -187500.02235174447, 0.0, 0.0, 0.0, -187500.02235174447, -0.226, 0.07, -0.986, 192.0, 0.0, 0.0, 0.0, 0.0, 0.0, 0.0, 0.0, 0.0, 0.0, 1.677706088826438E9, 0.0, 2023-03-01 13:28:08.826
73.0, 29613.088621269304, 13705.195630216078, 0.0, -187500.02235174447, 0.0, 0.0, 0.0, -187500.02235174447, -0.226, 0.07, -0.986, 192.0, 0.0, 0.0, 0.0, 0.0, 0.0, 0.0, 0.0, 0.0, 0.0, 1.677706088826453E9, 0.0, 2023-03-01 13:28:08.826
74.0, 29632.400528478687, 13740.869014366748, 0.0, -187500.02235174447, 0.0, 0.0, 0.0, -187500.02235174447, -0.226, 0.07, -0.986, 192.0, 0.0, 0.0, 0.0, 0.0, 0.0, 0.0, 0.0, 0.0, 0.0, 1.677706088834336E9, 0.0, 2023-03-01 13:28:08.834
75.0, 29675.561747021886, 13794.624959781762, 0.0, -187500.02235174447, 0.0, 0.0, 0.0, -187500.02235174447, -0.226, 0.07, -0.986, 192.0, 0.0, 0.0, 0.0, 0.0, 0.0, 0.0, 0.0, 0.0, 0.0, 1.677706088834346E9, 0.0, 2023-03-01 13:28:08.834
76.0, 29652.427691510642, 13761.589081476819, 0.0, -187500.02235174447, 0.0, 0.0, 0.0, -187500.02235174447, -0.224, 0.07200000000000001, -0.986, 192.0, 249.0, 0.0, 2.0, 64.0, 225.0, 48.0, 0.0, 0.0, 0.0, 1.677706088841384E9, 0.0, 2023-03-01 13:28:08.841
77.0, 29602.873874053228, 13708.57074362883, 0.0, -187500.02235174447, 0.0, 0.0, 0.0, -187500.02235174447, -0.224, 0.07200000000000001, -0.986, 192.0, 0.0, 0.0, 0.0, 0.0, 0.0, 0.0, 0.0, 0.0, 0.0, 1.67770608884805E9, 0.0, 2023-03-01 13:28:08.848
78.0, 29612.216903235545, 13735.348133486288, 0.0, -187500.02235174447, 0.0, 0.0, 0.0, -187500.02235174447, -0.224, 0.07200000000000001, -0.986, 192.0, 0.0, 0.0, 0.0, 0.0, 0.0, 0.0, 0.0, 0.0, 0.0, 1.677706088848058E9, 0.0, 2023-03-01 13:28:08.848
79.0, 29660.496671259007, 13786.511276544486, 0.0, -187500.02235174447, 0.0, 0.0, 0.0, -187500.02235174447, -0.224, 0.07200000000000001, -0.986, 192.0, 0.0, 0.0, 0.0, 0.0, 0.0, 0.0, 0.0, 0.0, 0.0, 1.67770608885611E9, 0.0, 2023-03-01 13:28:08.856
80.0, 29653.85820315578, 13765.210064078577, 0.0, -187500.02235174447, 0.0, 0.0, 0.0, -187500.02235174447, -0.224, 0.07200000000000001, -0.986, 192.0, 0.0, 0.0, 0.0, 0.0, 0.0, 0.0, 0.0, 0.0, 0.0, 1.67770608885613E9, 0.0, 2023-03-01 13:28:08.856
81.0, 29613.33449045831, 13705.083871493802, 0.0, -187500.02235174447, 0.0, 0.0, 0.0, -187500.02235174447, -0.224, 0.07200000000000001, -0.986, 192.0, 0.0, 0.0, 0.0, 0.0, 0.0, 0.0, 0.0, 0.0, 0.0, 1.677706088863951E9, 0.0, 2023-03-01 13:28:08.863
82.0, 29616.709603871062, 13721.601810646274, 0.0, -187500.02235174447, 0.0, 0.0, 0.0, -187500.02235174447, -0.224, 0.07200000000000001, -0.986, 192.0, 0.0, 0.0, 0.0, 0.0, 0.0, 0.0, 0.0, 0.0, 0.0, 1.67770608886399E9, 0.0, 2023-03-01 13:28:08.863
83.0, 29653.81349966687, 13787.941788189626, 0.0, -187500.02235174447, 0.0, 0.0, 0.0, -187500.02235174447, -0.224, 0.07200000000000001, -0.986, 192.0, 0.0, 0.0, 0.0, 0.0, 0.0, 0.0, 0.0, 0.0, 0.0, 1.677706088871128E9, 0.0, 2023-03-01 13:28:08.871
84.0, 29655.48988050102, 13773.524913015952, 0.0, -187500.02235174447, 0.0, 0.0, 0.0, -187500.02235174447, -0.224, 0.07200000000000001, -0.986, 192.0, 0.0, 0.0, 0.0, 0.0, 0.0, 0.0, 0.0, 0.0, 0.0, 1.677706088871144E9, 0.0, 2023-03-01 13:28:08.871
85.0, 29616.463734682053, 13705.799127316372, 0.0, -187500.02235174447, 0.0, 0.0, 0.0, -187500.02235174447, -0.224, 0.07200000000000001, -0.986, 192.0, 0.0, 0.0, 0.0, 0.0, 0.0, 0.0, 0.0, 0.0, 0.0, 1.677706088878692E9, 0.0, 2023-03-01 13:28:08.878
86.0, 29598.872911795726, 13706.939066283592, 0.0, -187500.02235174447, 0.0, 0.0, 0.0, -187500.02235174447, -0.222, 0.068, -0.986, 192.0, 249.0, 16.0, 2.0, 32.0, 225.0, 48.0, 0.0, 0.0, 0.0, 1.677706088878702E9, 0.0, 2023-03-01 13:28:08.878
87.0, 29637.899057614693, 13764.58421523383, 0.0, -187500.02235174447, 0.0, 0.0, 0.0, -187500.02235174447, -0.222, 0.068, -0.986, 192.0, 0.0, 0.0, 0.0, 0.0, 0.0, 0.0, 0.0, 0.0, 0.0, 1.677706088886623E9, 0.0, 2023-03-01 13:28:08.886
88.0, 29656.048674112404, 13776.855322939793, 0.0, -187500.02235174447, 0.0, 0.0, 0.0, -187500.02235174447, -0.222, 0.068, -0.986, 192.0, 0.0, 0.0, 0.0, 0.0, 0.0, 0.0, 0.0, 0.0, 0.0, 1.677706088886632E9, 0.0, 2023-03-01 13:28:08.886
89.0, 29626.700833642582, 13728.106168282768, 0.0, -187500.02235174447, 0.0, 0.0, 0.0, -187500.02235174447, -0.222, 0.068, -0.986, 192.0, 0.0, 0.0, 0.0, 0.0, 0.0, 0.0, 0.0, 0.0, 0.0, 1.677706088894638E9, 0.0, 2023-03-01 13:28:08.894
90.0, 29604.48319965401, 13707.497859894975, 0.0, -187500.02235174447, 0.0, 0.0, 0.0, -187500.02235174447, -0.222, 0.068, -0.986, 192.0, 0.0, 0.0, 0.0, 0.0, 0.0, 0.0, 0.0, 0.0, 0.0, 1.677706088894653E9, 0.0, 2023-03-01 13:28:08.894
91.0, 29636.62500818074, 13762.39374427721, 0.0, -187500.02235174447, 0.0, 0.0, 0.0, -187500.02235174447, -0.222, 0.068, -0.986, 192.0, 0.0, 0.0, 0.0, 0.0, 0.0, 0.0, 0.0, 0.0, 0.0, 1.677706088900709E9, 0.0, 2023-03-01 13:28:08.900
92.0, 29667.112787617778, 13795.519029559975, 0.0, -187500.02235174447, 0.0, 0.0, 0.0, -187500.02235174447, -0.222, 0.068, -0.986, 192.0, 0.0, 0.0, 0.0, 0.0, 0.0, 0.0, 0.0, 0.0, 0.0, 1.677706088908448E9, 0.0, 2023-03-01 13:28:08.908
93.0, 29648.225563553046, 13749.563842959864, 0.0, -187500.02235174447, 0.0, 0.0, 0.0, -187500.02235174447, -0.222, 0.068, -0.986, 192.0, 0.0, 0.0, 0.0, 0.0, 0.0, 0.0, 0.0, 0.0, 0.0, 1.677706088908469E9, 0.0, 2023-03-01 13:28:08.908
94.0, 29610.585225890307, 13700.747633069472, 0.0, -187500.02235174447, 0.0, 0.0, 0.0, -187500.02235174447, -0.222, 0.068, -0.986, 192.0, 0.0, 0.0, 0.0, 0.0, 0.0, 0.0, 0.0, 0.0, 0.0, 1.677706088916313E9, 0.0, 2023-03-01 13:28:08.916
95.0, 29637.161450047668, 13752.067238338857, 0.0, -187500.02235174447, 0.0, 0.0, 0.0, -187500.02235174447, -0.222, 0.068, -0.986, 192.0, 0.0, 0.0, 0.0, 0.0, 0.0, 0.0, 0.0, 0.0, 0.0, 1.677706088916327E9, 0.0, 2023-03-01 13:28:08.916
96.0, 29665.3022963169, 13791.451012069108, 0.0, -187500.02235174447, 0.0, 0.0, 0.0, -187500.02235174447, -0.222, 0.07200000000000001, -0.988, 192.0, 249.0, 16.0, 2.0, 64.0, 225.0, 32.0, 0.0, 0.0, 0.0, 1.677706088924234E9, 0.0, 2023-03-01 13:28:08.924
97.0, 29638.591961692808, 13746.725171414038, 0.0, -187500.02235174447, 0.0, 0.0, 0.0, -187500.02235174447, -0.222, 0.07200000000000001, -0.988, 192.0, 0.0, 0.0, 0.0, 0.0, 0.0, 0.0, 0.0, 0.0, 0.0, 1.677706088924246E9, 0.0, 2023-03-01 13:28:08.924
98.0, 29601.66687985264, 13706.827307561316, 0.0, -187500.02235174447, 0.0, 0.0, 0.0, -187500.02235174447, -0.222, 0.07200000000000001, -0.988, 192.0, 0.0, 0.0, 0.0, 0.0, 0.0, 0.0, 0.0, 0.0, 0.0, 1.67770608893096E9, 0.0, 2023-03-01 13:28:08.930
99.0, 29630.81355462236, 13753.855377895283, 0.0, -187500.02235174447, 0.0, 0.0, 0.0, -187500.02235174447, -0.222, 0.07200000000000001, -0.988, 192.0, 0.0, 0.0, 0.0, 0.0, 0.0, 0.0, 0.0, 0.0, 0.0, 1.677706088930969E9, 0.0, 2023-03-01 13:28:08.930
100.0, 29671.06904638637, 13810.58410532285, 0.0, -187500.02235174447, 0.0, 0.0, 0.0, -187500.02235174447, -0.222, 0.07200000000000001, -0.988, 192.0, 0.0, 0.0, 0.0, 0.0, 0.0, 0.0, 0.0, 0.0, 0.0, 1.677706088939027E9, 0.0, 2023-03-01 13:28:08.939
101.0, 29654.126424089245, 13766.573520490352, 0.0, -187500.02235174447, 0.0, 0.0, 0.0, -187500.02235174447, -0.222, 0.07200000000000001, -0.988, 192.0, 0.0, 0.0, 0.0, 0.0, 0.0, 0.0, 0.0, 0.0, 0.0, 1.677706088939042E9, 0.0, 2023-03-01 13:28:08.939
102.0, 29607.835961322304, 13704.726243582518, 0.0, -187500.02235174447, 0.0, 0.0, 0.0, -187500.02235174447, -0.222, 0.07200000000000001, -0.988, 192.0, 0.0, 0.0, 0.0, 0.0, 0.0, 0.0, 0.0, 0.0, 0.0, 1.677706088946946E9, 0.0, 2023-03-01 13:28:08.946
103.0, 29618.073060282837, 13724.149909514179, 0.0, -187500.02235174447, 0.0, 0.0, 0.0, -187500.02235174447, -0.222, 0.07200000000000001, -0.988, 192.0, 0.0, 0.0, 0.0, 0.0, 0.0, 0.0, 0.0, 0.0, 0.0, 1.677706088946961E9, 0.0, 2023-03-01 13:28:08.946
104.0, 29659.088511358324, 13786.3548143333, 0.0, -187500.02235174447, 0.0, 0.0, 0.0, -187500.02235174447, -0.222, 0.07200000000000001, -0.988, 192.0, 0.0, 0.0, 0.0, 0.0, 0.0, 0.0, 0.0, 0.0, 0.0, 1.677706088954124E9, 0.0, 2023-03-01 13:28:08.954
105.0, 29651.62302871025, 13775.782439205937, 0.0, -187500.02235174447, 0.0, 0.0, 0.0, -187500.02235174447, -0.222, 0.07200000000000001, -0.988, 192.0, 0.0, 0.0, 0.0, 0.0, 0.0, 0.0, 0.0, 0.0, 0.0, 1.677706088954139E9, 0.0, 2023-03-01 13:28:08.954
106.0, 29610.115839256745, 13714.896287309683, 0.0, -187500.02235174447, 0.0, 0.0, 0.0, -187500.02235174447, -0.22, 0.068, -0.986, 192.0, 249.0, 32.0, 2.0, 32.0, 225.0, 48.0, 0.0, 0.0, 0.0, 1.67770608896058E9, 0.0, 2023-03-01 13:28:08.960
107.0, 29605.645490365685, 13724.373426958731, 0.0, -187500.02235174447, 0.0, 0.0, 0.0, -187500.02235174447, -0.22, 0.068, -0.986, 192.0, 0.0, 0.0, 0.0, 0.0, 0.0, 0.0, 0.0, 0.0, 0.0, 1.67770608896859E9, 0.0, 2023-03-01 13:28:08.968
108.0, 29648.67259844215, 13783.292625342921, 0.0, -187500.02235174447, 0.0, 0.0, 0.0, -187500.02235174447, -0.22, 0.068, -0.986, 192.0, 0.0, 0.0, 0.0, 0.0, 0.0, 0.0, 0.0, 0.0, 0.0, 1.677706088968602E9, 0.0, 2023-03-01 13:28:08.968
109.0, 29659.334380547334, 13784.857247454793, 0.0, -187500.02235174447, 0.0, 0.0, 0.0, -187500.02235174447, -0.22, 0.068, -0.986, 192.0, 0.0, 0.0, 0.0, 0.0, 0.0, 0.0, 0.0, 0.0, 0.0, 1.677706088976515E9, 0.0, 2023-03-01 13:28:08.976
110.0, 29625.315025486354, 13734.275249752433, 0.0, -187500.02235174447, 0.0, 0.0, 0.0, -187500.02235174447, -0.22, 0.068, -0.986, 192.0, 0.0, 0.0, 0.0, 0.0, 0.0, 0.0, 0.0, 0.0, 0.0, 1.677706088976526E9, 0.0, 2023-03-01 13:28:08.976
111.0, 29618.743612616494, 13718.606676889263, 0.0, -187500.02235174447, 0.0, 0.0, 0.0, -187500.02235174447, -0.22, 0.068, -0.986, 192.0, 0.0, 0.0, 0.0, 0.0, 0.0, 0.0, 0.0, 0.0, 0.0, 1.677706088983707E9, 0.0, 2023-03-01 13:28:08.983
112.0, 29669.772645207962, 13780.453953797098, 0.0, -187500.02235174447, 0.0, 0.0, 0.0, -187500.02235174447, -0.22, 0.068, -0.986, 192.0, 0.0, 0.0, 0.0, 0.0, 0.0, 0.0, 0.0, 0.0, 0.0, 1.677706088983726E9, 0.0, 2023-03-01 13:28:08.983
113.0, 29679.518005790476, 13793.619131281273, 0.0, -187500.02235174447, 0.0, 0.0, 0.0, -187500.02235174447, -0.22, 0.068, -0.986, 192.0, 0.0, 0.0, 0.0, 0.0, 0.0, 0.0, 0.0, 0.0, 0.0, 1.677706088991196E9, 0.0, 2023-03-01 13:28:08.991
114.0, 29636.088566313814, 13739.930241099626, 0.0, -187500.02235174447, 0.0, 0.0, 0.0, -187500.02235174447, -0.22, 0.068, -0.986, 192.0, 0.0, 0.0, 0.0, 0.0, 0.0, 0.0, 0.0, 0.0, 0.0, 1.677706088991213E9, 0.0, 2023-03-01 13:28:08.991
115.0, 29597.040068750393, 13710.42593841862, 0.0, -187500.02235174447, 0.0, 0.0, 0.0, -187500.02235174447, -0.22, 0.068, -0.986, 192.0, 0.0, 0.0, 0.0, 0.0, 0.0, 0.0, 0.0, 0.0, 0.0, 1.677706088999135E9, 0.0, 2023-03-01 13:28:08.999
116.0, 29622.901037085183, 13760.359735531776, 0.0, -187500.02235174447, 0.0, 0.0, 0.0, -187500.02235174447, -0.224, 0.068, -0.984, 192.0, 249.0, 0.0, 2.0, 32.0, 225.0, 64.0, 0.0, 0.0, 0.0, 1.67770608899915E9, 0.0, 2023-03-01 13:28:08.999
117.0, 29647.979694364036, 13787.695919000616, 0.0, -187500.02235174447, 0.0, 0.0, 0.0, -187500.02235174447, -0.224, 0.068, -0.984, 192.0, 0.0, 0.0, 0.0, 0.0, 0.0, 0.0, 0.0, 0.0, 0.0, 1.677706089006227E9, 0.0, 2023-03-01 13:28:09.006
118.0, 29619.548275416884, 13742.590098689807, 0.0, -187500.02235174447, 0.0, 0.0, 0.0, -187500.02235174447, -0.224, 0.068, -0.984, 192.0, 0.0, 0.0, 0.0, 0.0, 0.0, 0.0, 0.0, 0.0, 0.0, 1.677706089006239E9, 0.0, 2023-03-01 13:28:09.006
119.0, 29601.309251941355, 13702.356958670254, 0.0, -187500.02235174447, 0.0, 0.0, 0.0, -187500.02235174447, -0.224, 0.068, -0.984, 192.0, 0.0, 0.0, 0.0, 0.0, 0.0, 0.0, 0.0, 0.0, 0.0, 1.67770608901382E9, 0.0, 2023-03-01 13:28:09.013
120.0, 29637.072043069846, 13742.1430638007, 0.0, -187500.02235174447, 0.0, 0.0, 0.0, -187500.02235174447, -0.224, 0.068, -0.984, 192.0, 0.0, 0.0, 0.0, 0.0, 0.0, 0.0, 0.0, 0.0, 0.0, 1.677706089013828E9, 0.0, 2023-03-01 13:28:09.013
121.0, 29665.54816550591, 13781.996224164513, 0.0, -187500.02235174447, 0.0, 0.0, 0.0, -187500.02235174447, -0.224, 0.068, -0.984, 192.0, 0.0, 0.0, 0.0, 0.0, 0.0, 0.0, 0.0, 0.0, 0.0, 1.677706089020838E9, 0.0, 2023-03-01 13:28:09.020
122.0, 29638.793127392906, 13746.099322569291, 0.0, -187500.02235174447, 0.0, 0.0, 0.0, -187500.02235174447, -0.224, 0.068, -0.984, 192.0, 0.0, 0.0, 0.0, 0.0, 0.0, 0.0, 0.0, 0.0, 0.0, 1.677706089020856E9, 0.0, 2023-03-01 13:28:09.020
123.0, 29598.71644958454, 13699.764156313438, 0.0, -187500.02235174447, 0.0, 0.0, 0.0, -187500.02235174447, -0.224, 0.068, -0.984, 192.0, 0.0, 0.0, 0.0, 0.0, 0.0, 0.0, 0.0, 0.0, 0.0, 1.677706089030262E9, 0.0, 2023-03-01 13:28:09.030
124.0, 29613.110973013758, 13737.449197465086, 0.0, -187500.02235174447, 0.0, 0.0, 0.0, -187500.02235174447, -0.224, 0.068, -0.984, 192.0, 0.0, 0.0, 0.0, 0.0, 0.0, 0.0, 0.0, 0.0, 0.0, 1.677706089036781E9, 0.0, 2023-03-01 13:28:09.036
125.0, 29654.372293278255, 13796.63661678274, 0.0, -187500.02235174447, 0.0, 0.0, 0.0, -187500.02235174447, -0.224, 0.068, -0.984, 192.0, 0.0, 0.0, 0.0, 0.0, 0.0, 0.0, 0.0, 0.0, 0.0, 1.677706089036796E9, 0.0, 2023-03-01 13:28:09.036
126.0, 29639.150755304192, 13772.876712426749, 0.0, -187500.02235174447, 0.0, 0.0, 0.0, -187500.02235174447, -0.226, 0.066, -0.986, 192.0, 248.0, 240.0, 2.0, 16.0, 225.0, 48.0, 0.0, 0.0, 0.0, 1.677706089043417E9, 0.0, 2023-03-01 13:28:09.043
127.0, 29600.258719951955, 13720.037188534403, 0.0, -187500.02235174447, 0.0, 0.0, 0.0, -187500.02235174447, -0.226, 0.066, -0.986, 192.0, 0.0, 0.0, 0.0, 0.0, 0.0, 0.0, 0.0, 0.0, 0.0, 1.677706089043428E9, 0.0, 2023-03-01 13:28:09.043
128.0, 29618.274225982932, 13748.826235392838, 0.0, -187500.02235174447, 0.0, 0.0, 0.0, -187500.02235174447, -0.226, 0.066, -0.986, 192.0, 0.0, 0.0, 0.0, 0.0, 0.0, 0.0, 0.0, 0.0, 0.0, 1.677706089051412E9, 0.0, 2023-03-01 13:28:09.051
129.0, 29658.619124724763, 13802.962160463592, 0.0, -187500.02235174447, 0.0, 0.0, 0.0, -187500.02235174447, -0.226, 0.066, -0.986, 192.0, 0.0, 0.0, 0.0, 0.0, 0.0, 0.0, 0.0, 0.0, 0.0, 1.677706089051426E9, 0.0, 2023-03-01 13:28:09.051
130.0, 29658.1497380912, 13780.29749158591, 0.0, -187500.02235174447, 0.0, 0.0, 0.0, -187500.02235174447, -0.226, 0.066, -0.986, 192.0, 0.0, 0.0, 0.0, 0.0, 0.0, 0.0, 0.0, 0.0, 0.0, 1.677706089059395E9, 0.0, 2023-03-01 13:28:09.059
131.0, 29616.463734682053, 13713.979865787014, 0.0, -187500.02235174447, 0.0, 0.0, 0.0, -187500.02235174447, -0.226, 0.066, -0.986, 192.0, 0.0, 0.0, 0.0, 0.0, 0.0, 0.0, 0.0, 0.0, 0.0, 1.677706089059424E9, 0.0, 2023-03-01 13:28:09.059
132.0, 29603.030336264415, 13715.343322198787, 0.0, -187500.02235174447, 0.0, 0.0, 0.0, -187500.02235174447, -0.226, 0.066, -0.986, 192.0, 0.0, 0.0, 0.0, 0.0, 0.0, 0.0, 0.0, 0.0, 0.0, 1.67770608906599E9, 0.0, 2023-03-01 13:28:09.065
133.0, 29656.92039214616, 13787.15947713369, 0.0, -187500.02235174447, 0.0, 0.0, 0.0, -187500.02235174447, -0.226, 0.066, -0.986, 192.0, 0.0, 0.0, 0.0, 0.0, 0.0, 0.0, 0.0, 0.0, 0.0, 1.677706089066011E9, 0.0, 2023-03-01 13:28:09.066
134.0, 29664.229412583045, 13791.518067302475, 0.0, -187500.02235174447, 0.0, 0.0, 0.0, -187500.02235174447, -0.226, 0.066, -0.986, 192.0, 0.0, 0.0, 0.0, 0.0, 0.0, 0.0, 0.0, 0.0, 0.0, 1.677706089074112E9, 0.0, 2023-03-01 13:28:09.074
135.0, 29626.879647598227, 13731.436578206609, 0.0, -187500.02235174447, 0.0, 0.0, 0.0, -187500.02235174447, -0.226, 0.066, -0.986, 192.0, 0.0, 0.0, 0.0, 0.0, 0.0, 0.0, 0.0, 0.0, 0.0, 1.677706089074129E9, 0.0, 2023-03-01 13:28:09.074
136.0, 29607.455981666564, 13717.422034433132, 0.0, -187500.02235174447, 0.0, 0.0, 0.0, -187500.02235174447, -0.226, 0.066, -0.986, 192.0, 0.0, 0.0, 0.0, 0.0, 0.0, 0.0, 0.0, 0.0, 0.0, 1.677706089082143E9, 0.0, 2023-03-01 13:28:09.082
137.0, 29647.73382517503, 13776.855322939793, 0.0, -187500.02235174447, 0.0, 0.0, 0.0, -187500.02235174447, -0.226, 0.066, -0.988, 192.0, 248.0, 240.0, 2.0, 16.0, 225.0, 32.0, 0.0, 0.0, 0.0, 1.677706089082157E9, 0.0, 2023-03-01 13:28:09.082
138.0, 29676.768741222473, 13801.01755869598, 0.0, -187500.02235174447, 0.0, 0.0, 0.0, -187500.02235174447, -0.226, 0.066, -0.988, 192.0, 0.0, 0.0, 0.0, 0.0, 0.0, 0.0, 0.0, 0.0, 0.0, 1.677706089089283E9, 0.0, 2023-03-01 13:28:09.089
139.0, 29636.982636092027, 13749.966174360059, 0.0, -187500.02235174447, 0.0, 0.0, 0.0, -187500.02235174447, -0.226, 0.066, -0.988, 192.0, 0.0, 0.0, 0.0, 0.0, 0.0, 0.0, 0.0, 0.0, 0.0, 1.6777060890972E9, 0.0, 2023-03-01 13:28:09.097
140.0, 29606.80778107736, 13707.766080828438, 0.0, -187500.02235174447, 0.0, 0.0, 0.0, -187500.02235174447, -0.226, 0.066, -0.988, 192.0, 0.0, 0.0, 0.0, 0.0, 0.0, 0.0, 0.0, 0.0, 0.0, 1.677706089097208E9, 0.0, 2023-03-01 13:28:09.097
141.0, 29645.856278640782, 13763.310165799878, 0.0, -187500.02235174447, 0.0, 0.0, 0.0, -187500.02235174447, -0.226, 0.066, -0.988, 192.0, 0.0, 0.0, 0.0, 0.0, 0.0, 0.0, 0.0, 0.0, 0.0, 1.677706089103649E9, 0.0, 2023-03-01 13:28:09.103
142.0, 29673.460683043086, 13800.21289589559, 0.0, -187500.02235174447, 0.0, 0.0, 0.0, -187500.02235174447, -0.226, 0.066, -0.988, 192.0, 0.0, 0.0, 0.0, 0.0, 0.0, 0.0, 0.0, 0.0, 0.0, 1.677706089103664E9, 0.0, 2023-03-01 13:28:09.103
143.0, 29637.139098303214, 13755.710572685073, 0.0, -187500.02235174447, 0.0, 0.0, 0.0, -187500.02235174447, -0.226, 0.066, -0.988, 192.0, 0.0, 0.0, 0.0, 0.0, 0.0, 0.0, 0.0, 0.0, 0.0, 1.677706089111794E9, 0.0, 2023-03-01 13:28:09.111
144.0, 29600.638699607694, 13709.844793062783, 0.0, -187500.02235174447, 0.0, 0.0, 0.0, -187500.02235174447, -0.226, 0.066, -0.988, 192.0, 0.0, 0.0, 0.0, 0.0, 0.0, 0.0, 0.0, 0.0, 0.0, 1.677706089111815E9, 0.0, 2023-03-01 13:28:09.111
145.0, 29629.450098210586, 13752.894252883703, 0.0, -187500.02235174447, 0.0, 0.0, 0.0, -187500.02235174447, -0.226, 0.066, -0.988, 192.0, 0.0, 0.0, 0.0, 0.0, 0.0, 0.0, 0.0, 0.0, 0.0, 1.677706089118776E9, 0.0, 2023-03-01 13:28:09.118
146.0, 29662.418921282166, 13795.899009215715, 0.0, -187500.02235174447, 0.0, 0.0, 0.0, -187500.02235174447, -0.226, 0.066, -0.988, 192.0, 0.0, 0.0, 0.0, 0.0, 0.0, 0.0, 0.0, 0.0, 0.0, 1.677706089118791E9, 0.0, 2023-03-01 13:28:09.118
147.0, 29638.569609948354, 13754.347116273299, 0.0, -187500.02235174447, 0.0, 0.0, 0.0, -187500.02235174447, -0.226, 0.06, -0.988, 192.0, 248.0, 240.0, 1.0, 224.0, 225.0, 32.0, 0.0, 0.0, 0.0, 1.677706089126305E9, 0.0, 2023-03-01 13:28:09.126
148.0, 29593.32967917081, 13705.32974068281, 0.0, -187500.02235174447, 0.0, 0.0, 0.0, -187500.02235174447, -0.226, 0.06, -0.988, 192.0, 0.0, 0.0, 0.0, 0.0, 0.0, 0.0, 0.0, 0.0, 0.0, 1.677706089126317E9, 0.0, 2023-03-01 13:28:09.126
149.0, 29616.19551374859, 13743.595927190296, 0.0, -187500.02235174447, 0.0, 0.0, 0.0, -187500.02235174447, -0.226, 0.06, -0.988, 192.0, 0.0, 0.0, 0.0, 0.0, 0.0, 0.0, 0.0, 0.0, 0.0, 1.677706089134429E9, 0.0, 2023-03-01 13:28:09.134
150.0, 29668.543299262918, 13799.095308672824, 0.0, -187500.02235174447, 0.0, 0.0, 0.0, -187500.02235174447, -0.226, 0.06, -0.988, 192.0, 0.0, 0.0, 0.0, 0.0, 0.0, 0.0, 0.0, 0.0, 0.0, 1.677706089134441E9, 0.0, 2023-03-01 13:28:09.134
151.0, 29659.289677058423, 13777.458820040087, 0.0, -187500.02235174447, 0.0, 0.0, 0.0, -187500.02235174447, -0.226, 0.06, -0.988, 192.0, 0.0, 0.0, 0.0, 0.0, 0.0, 0.0, 0.0, 0.0, 0.0, 1.67770608914234E9, 0.0, 2023-03-01 13:28:09.142
152.0, 29614.407374192164, 13718.405511189165, 0.0, -187500.02235174447, 0.0, 0.0, 0.0, -187500.02235174447, -0.226, 0.06, -0.988, 192.0, 0.0, 0.0, 0.0, 0.0, 0.0, 0.0, 0.0, 0.0, 0.0, 1.677706089142349E9, 0.0, 2023-03-01 13:28:09.142
153.0, 29621.00113880648, 13729.402569461176, 0.0, -187500.02235174447, 0.0, 0.0, 0.0, -187500.02235174447, -0.226, 0.06, -0.988, 192.0, 0.0, 0.0, 0.0, 0.0, 0.0, 0.0, 0.0, 0.0, 0.0, 1.677706089148498E9, 0.0, 2023-03-01 13:28:09.148
154.0, 29665.77168295046, 13791.428660324653, 0.0, -187500.02235174447, 0.0, 0.0, 0.0, -187500.02235174447, -0.226, 0.06, -0.988, 192.0, 0.0, 0.0, 0.0, 0.0, 0.0, 0.0, 0.0, 0.0, 0.0, 1.677706089155935E9, 0.0, 2023-03-01 13:28:09.155
155.0, 29665.97284865056, 13787.628863767251, 0.0, -187500.02235174447, 0.0, 0.0, 0.0, -187500.02235174447, -0.226, 0.06, -0.988, 192.0, 0.0, 0.0, 0.0, 0.0, 0.0, 0.0, 0.0, 0.0, 0.0, 1.67770608915595E9, 0.0, 2023-03-01 13:28:09.155
156.0, 29627.57255167634, 13731.280115995422, 0.0, -187500.02235174447, 0.0, 0.0, 0.0, -187500.02235174447, -0.226, 0.06, -0.988, 192.0, 0.0, 0.0, 0.0, 0.0, 0.0, 0.0, 0.0, 0.0, 0.0, 1.677706089164122E9, 0.0, 2023-03-01 13:28:09.164
157.0, 29624.95739757507, 13734.945802086093, 0.0, -187500.02235174447, 0.0, 0.0, 0.0, -187500.02235174447, -0.23, 0.062, -0.988, 192.0, 248.0, 208.0, 1.0, 240.0, 225.0, 32.0, 0.0, 0.0, 0.0, 1.677706089164136E9, 0.0, 2023-03-01 13:28:09.164
158.0, 29670.68906673063, 13812.416948368187, 0.0, -187500.02235174447, 0.0, 0.0, 0.0, -187500.02235174447, -0.23, 0.062, -0.988, 192.0, 0.0, 0.0, 0.0, 0.0, 0.0, 0.0, 0.0, 0.0, 0.0, 1.677706089172033E9, 0.0, 2023-03-01 13:28:09.172
159.0, 29682.982526181047, 13815.680303058662, 0.0, -187500.02235174447, 0.0, 0.0, 0.0, -187500.02235174447, -0.23, 0.062, -0.988, 192.0, 0.0, 0.0, 0.0, 0.0, 0.0, 0.0, 0.0, 0.0, 0.0, 1.677706089172044E9, 0.0, 2023-03-01 13:28:09.172
160.0, 29649.54431647591, 13749.586194704318, 0.0, -187500.02235174447, 0.0, 0.0, 0.0, -187500.02235174447, -0.23, 0.062, -0.988, 192.0, 0.0, 0.0, 0.0, 0.0, 0.0, 0.0, 0.0, 0.0, 0.0, 1.677706089179297E9, 0.0, 2023-03-01 13:28:09.179
161.0, 29617.693080627094, 13722.920563569138, 0.0, -187500.02235174447, 0.0, 0.0, 0.0, -187500.02235174447, -0.23, 0.062, -0.988, 192.0, 0.0, 0.0, 0.0, 0.0, 0.0, 0.0, 0.0, 0.0, 0.0, 1.677706089179306E9, 0.0, 2023-03-01 13:28:09.179
162.0, 29655.31106654538, 13780.543360774918, 0.0, -187500.02235174447, 0.0, 0.0, 0.0, -187500.02235174447, -0.23, 0.062, -0.988, 192.0, 0.0, 0.0, 0.0, 0.0, 0.0, 0.0, 0.0, 0.0, 0.0, 1.67770608918673E9, 0.0, 2023-03-01 13:28:09.186
163.0, 29678.221604612067, 13804.862058742292, 0.0, -187500.02235174447, 0.0, 0.0, 0.0, -187500.02235174447, -0.23, 0.062, -0.988, 192.0, 0.0, 0.0, 0.0, 0.0, 0.0, 0.0, 0.0, 0.0, 0.0, 1.677706089186769E9, 0.0, 2023-03-01 13:28:09.186
164.0, 29643.978732106538, 13753.989488362015, 0.0, -187500.02235174447, 0.0, 0.0, 0.0, -187500.02235174447, -0.23, 0.062, -0.988, 192.0, 0.0, 0.0, 0.0, 0.0, 0.0, 0.0, 0.0, 0.0, 0.0, 1.677706089194742E9, 0.0, 2023-03-01 13:28:09.194
165.0, 29604.617310120742, 13716.170336743635, 0.0, -187500.02235174447, 0.0, 0.0, 0.0, -187500.02235174447, -0.23, 0.062, -0.988, 192.0, 0.0, 0.0, 0.0, 0.0, 0.0, 0.0, 0.0, 0.0, 0.0, 1.677706089194761E9, 0.0, 2023-03-01 13:28:09.194
166.0, 29635.57447619134, 13763.891311155714, 0.0, -187500.02235174447, 0.0, 0.0, 0.0, -187500.02235174447, -0.23, 0.062, -0.988, 192.0, 0.0, 0.0, 0.0, 0.0, 0.0, 0.0, 0.0, 0.0, 0.0, 1.677706089201844E9, 0.0, 2023-03-01 13:28:09.201
167.0, 29667.269249828965, 13804.437375597641, 0.0, -187500.02235174447, 0.0, 0.0, 0.0, -187500.02235174447, -0.226, 0.066, -0.988, 192.0, 248.0, 240.0, 2.0, 16.0, 225.0, 32.0, 0.0, 0.0, 0.0, 1.677706089201863E9, 0.0, 2023-03-01 13:28:09.201
168.0, 29652.293581043912, 13772.653194982195, 0.0, -187500.02235174447, 0.0, 0.0, 0.0, -187500.02235174447, -0.226, 0.066, -0.988, 192.0, 0.0, 0.0, 0.0, 0.0, 0.0, 0.0, 0.0, 0.0, 0.0, 1.677706089208413E9, 0.0, 2023-03-01 13:28:09.208
169.0, 29627.013758064957, 13729.961363072558, 0.0, -187500.02235174447, 0.0, 0.0, 0.0, -187500.02235174447, -0.226, 0.066, -0.988, 192.0, 0.0, 0.0, 0.0, 0.0, 0.0, 0.0, 0.0, 0.0, 0.0, 1.677706089216454E9, 0.0, 2023-03-01 13:28:09.216
170.0, 29651.131290332236, 13759.800941920394, 0.0, -187500.02235174447, 0.0, 0.0, 0.0, -187500.02235174447, -0.226, 0.066, -0.988, 192.0, 0.0, 0.0, 0.0, 0.0, 0.0, 0.0, 0.0, 0.0, 0.0, 1.677706089216467E9, 0.0, 2023-03-01 13:28:09.216
171.0, 29683.518968047974, 13810.49469834503, 0.0, -187500.02235174447, 0.0, 0.0, 0.0, -187500.02235174447, -0.226, 0.066, -0.988, 192.0, 0.0, 0.0, 0.0, 0.0, 0.0, 0.0, 0.0, 0.0, 0.0, 1.677706089224402E9, 0.0, 2023-03-01 13:28:09.224
172.0, 29670.420845797165, 13784.812543965882, 0.0, -187500.02235174447, 0.0, 0.0, 0.0, -187500.02235174447, -0.226, 0.066, -0.988, 192.0, 0.0, 0.0, 0.0, 0.0, 0.0, 0.0, 0.0, 0.0, 0.0, 1.677706089224411E9, 0.0, 2023-03-01 13:28:09.224
173.0, 29643.621104195252, 13732.19653751809, 0.0, -187500.02235174447, 0.0, 0.0, 0.0, -187500.02235174447, -0.226, 0.066, -0.988, 192.0, 0.0, 0.0, 0.0, 0.0, 0.0, 0.0, 0.0, 0.0, 0.0, 1.677706089230993E9, 0.0, 2023-03-01 13:28:09.230
174.0, 29649.76783392046, 13762.594909977308, 0.0, -187500.02235174447, 0.0, 0.0, 0.0, -187500.02235174447, -0.226, 0.066, -0.988, 192.0, 0.0, 0.0, 0.0, 0.0, 0.0, 0.0, 0.0, 0.0, 0.0, 1.67770608923101E9, 0.0, 2023-03-01 13:28:09.231
175.0, 29681.507311046997, 13826.140919463745, 0.0, -187500.02235174447, 0.0, 0.0, 0.0, -187500.02235174447, -0.226, 0.066, -0.988, 192.0, 0.0, 0.0, 0.0, 0.0, 0.0, 0.0, 0.0, 0.0, 0.0, 1.67770608923898E9, 0.0, 2023-03-01 13:28:09.238
176.0, 29673.930069676648, 13804.526782575464, 0.0, -187500.02235174447, 0.0, 0.0, 0.0, -187500.02235174447, -0.226, 0.066, -0.988, 192.0, 0.0, 0.0, 0.0, 0.0, 0.0, 0.0, 0.0, 0.0, 0.0, 1.677706089238995E9, 0.0, 2023-03-01 13:28:09.238
177.0, 29621.179952762122, 13744.042962079402, 0.0, -187500.02235174447, 0.0, 0.0, 0.0, -187500.02235174447, -0.228, 0.062, -0.982, 192.0, 248.0, 224.0, 1.0, 240.0, 225.0, 80.0, 0.0, 0.0, 0.0, 1.677706089247011E9, 0.0, 2023-03-01 13:28:09.247
178.0, 29616.508438170964, 13750.457912738075, 0.0, -187500.02235174447, 0.0, 0.0, 0.0, -187500.02235174447, -0.228, 0.062, -0.982, 192.0, 0.0, 0.0, 0.0, 0.0, 0.0, 0.0, 0.0, 0.0, 0.0, 1.677706089247027E9, 0.0, 2023-03-01 13:28:09.247
179.0, 29665.861089928283, 13801.129317418256, 0.0, -187500.02235174447, 0.0, 0.0, 0.0, -187500.02235174447, -0.228, 0.062, -0.982, 192.0, 0.0, 0.0, 0.0, 0.0, 0.0, 0.0, 0.0, 0.0, 0.0, 1.677706089255031E9, 0.0, 2023-03-01 13:28:09.255
180.0, 29666.084607372835, 13793.73089000355, 0.0, -187500.02235174447, 0.0, 0.0, 0.0, -187500.02235174447, -0.228, 0.062, -0.982, 192.0, 0.0, 0.0, 0.0, 0.0, 0.0, 0.0, 0.0, 0.0, 0.0, 1.677706089255065E9, 0.0, 2023-03-01 13:28:09.255
181.0, 29624.06332779686, 13735.951630586582, 0.0, -187500.02235174447, 0.0, 0.0, 0.0, -187500.02235174447, -0.228, 0.062, -0.982, 192.0, 0.0, 0.0, 0.0, 0.0, 0.0, 0.0, 0.0, 0.0, 0.0, 1.677706089261561E9, 0.0, 2023-03-01 13:28:09.261
182.0, 29615.033223036913, 13725.491014181498, 0.0, -187500.02235174447, 0.0, 0.0, 0.0, -187500.02235174447, -0.228, 0.062, -0.982, 192.0, 0.0, 0.0, 0.0, 0.0, 0.0, 0.0, 0.0, 0.0, 0.0, 1.677706089261571E9, 0.0, 2023-03-01 13:28:09.261
183.0, 29660.00493288099, 13784.477267799053, 0.0, -187500.02235174447, 0.0, 0.0, 0.0, -187500.02235174447, -0.228, 0.062, -0.982, 192.0, 0.0, 0.0, 0.0, 0.0, 0.0, 0.0, 0.0, 0.0, 0.0, 1.677706089268657E9, 0.0, 2023-03-01 13:28:09.268
184.0, 29668.38683705173, 13794.088517914835, 0.0, -187500.02235174447, 0.0, 0.0, 0.0, -187500.02235174447, -0.228, 0.062, -0.982, 192.0, 0.0, 0.0, 0.0, 0.0, 0.0, 0.0, 0.0, 0.0, 0.0, 1.677706089268665E9, 0.0, 2023-03-01 13:28:09.268
185.0, 29629.76302263296, 13738.85735736577, 0.0, -187500.02235174447, 0.0, 0.0, 0.0, -187500.02235174447, -0.228, 0.062, -0.982, 192.0, 0.0, 0.0, 0.0, 0.0, 0.0, 0.0, 0.0, 0.0, 0.0, 1.677706089276716E9, 0.0, 2023-03-01 13:28:09.276
186.0, 29603.90205429817, 13716.103281510268, 0.0, -187500.02235174447, 0.0, 0.0, 0.0, -187500.02235174447, -0.228, 0.062, -0.982, 192.0, 0.0, 0.0, 0.0, 0.0, 0.0, 0.0, 0.0, 0.0, 0.0, 1.677706089285323E9, 0.0, 2023-03-01 13:28:09.285
187.0, 29644.358711762277, 13772.943767660114, 0.0, -187500.02235174447, 0.0, 0.0, 0.0, -187500.02235174447, -0.226, 0.062, -0.982, 192.0, 248.0, 240.0, 1.0, 240.0, 225.0, 80.0, 0.0, 0.0, 0.0, 1.67770608928534E9, 0.0, 2023-03-01 13:28:09.285
188.0, 29666.44223528412, 13798.737680761538, 0.0, -187500.02235174447, 0.0, 0.0, 0.0, -187500.02235174447, -0.226, 0.062, -0.982, 192.0, 0.0, 0.0, 0.0, 0.0, 0.0, 0.0, 0.0, 0.0, 0.0, 1.677706089291546E9, 0.0, 2023-03-01 13:28:09.291
189.0, 29629.785374377418, 13755.285889540422, 0.0, -187500.02235174447, 0.0, 0.0, 0.0, -187500.02235174447, -0.226, 0.062, -0.982, 192.0, 0.0, 0.0, 0.0, 0.0, 0.0, 0.0, 0.0, 0.0, 0.0, 1.677706089291559E9, 0.0, 2023-03-01 13:28:09.291
190.0, 29599.94579552958, 13715.09745300978, 0.0, -187500.02235174447, 0.0, 0.0, 0.0, -187500.02235174447, -0.226, 0.062, -0.982, 192.0, 0.0, 0.0, 0.0, 0.0, 0.0, 0.0, 0.0, 0.0, 0.0, 1.677706089299284E9, 0.0, 2023-03-01 13:28:09.299
191.0, 29637.608484936773, 13759.488017498019, 0.0, -187500.02235174447, 0.0, 0.0, 0.0, -187500.02235174447, -0.226, 0.062, -0.982, 192.0, 0.0, 0.0, 0.0, 0.0, 0.0, 0.0, 0.0, 0.0, 0.0, 1.677706089299296E9, 0.0, 2023-03-01 13:28:09.299
192.0, 29673.080703387346, 13800.950503462615, 0.0, -187500.02235174447, 0.0, 0.0, 0.0, -187500.02235174447, -0.226, 0.062, -0.982, 192.0, 0.0, 0.0, 0.0, 0.0, 0.0, 0.0, 0.0, 0.0, 0.0, 1.67770608930802E9, 0.0, 2023-03-01 13:28:09.308
193.0, 29643.35288326179, 13760.538549487419, 0.0, -187500.02235174447, 0.0, 0.0, 0.0, -187500.02235174447, -0.226, 0.062, -0.982, 192.0, 0.0, 0.0, 0.0, 0.0, 0.0, 0.0, 0.0, 0.0, 0.0, 1.677706089308029E9, 0.0, 2023-03-01 13:28:09.308
194.0, 29604.505551398463, 13709.889496551694, 0.0, -187500.02235174447, 0.0, 0.0, 0.0, -187500.02235174447, -0.226, 0.062, -0.982, 192.0, 0.0, 0.0, 0.0, 0.0, 0.0, 0.0, 0.0, 0.0, 0.0, 1.677706089314562E9, 0.0, 2023-03-01 13:28:09.314
195.0, 29625.85146735328, 13746.658116180673, 0.0, -187500.02235174447, 0.0, 0.0, 0.0, -187500.02235174447, -0.226, 0.062, -0.982, 192.0, 0.0, 0.0, 0.0, 0.0, 0.0, 0.0, 0.0, 0.0, 0.0, 1.677706089314584E9, 0.0, 2023-03-01 13:28:09.314
196.0, 29671.91841267567, 13802.224552896567, 0.0, -187500.02235174447, 0.0, 0.0, 0.0, -187500.02235174447, -0.226, 0.062, -0.982, 192.0, 0.0, 0.0, 0.0, 0.0, 0.0, 0.0, 0.0, 0.0, 0.0, 1.677706089321646E9, 0.0, 2023-03-01 13:28:09.321
197.0, 29654.752272933994, 13775.022479894458, 0.0, -187500.02235174447, 0.0, 0.0, 0.0, -187500.02235174447, -0.228, 0.064, -0.982, 192.0, 248.0, 224.0, 2.0, 0.0, 225.0, 80.0, 0.0, 0.0, 0.0, 1.677706089321661E9, 0.0, 2023-03-01 13:28:09.321
198.0, 29605.176103732123, 13717.690255366595, 0.0, -187500.02235174447, 0.0, 0.0, 0.0, -187500.02235174447, -0.228, 0.064, -0.982, 192.0, 0.0, 0.0, 0.0, 0.0, 0.0, 0.0, 0.0, 0.0, 0.0, 1.677706089329198E9, 0.0, 2023-03-01 13:28:09.329
199.0, 29622.722223129538, 13745.33936325781, 0.0, -187500.02235174447, 0.0, 0.0, 0.0, -187500.02235174447, -0.228, 0.064, -0.982, 192.0, 0.0, 0.0, 0.0, 0.0, 0.0, 0.0, 0.0, 0.0, 0.0, 1.677706089329213E9, 0.0, 2023-03-01 13:28:09.329
200.0, 29674.488863288032, 13803.029215696957, 0.0, -187500.02235174447, 0.0, 0.0, 0.0, -187500.02235174447, -0.228, 0.064, -0.982, 192.0, 0.0, 0.0, 0.0, 0.0, 0.0, 0.0, 0.0, 0.0, 0.0, 1.677706089336243E9, 0.0, 2023-03-01 13:28:09.336
201.0, 29665.995200395013, 13784.074936398858, 0.0, -187500.02235174447, 0.0, 0.0, 0.0, -187500.02235174447, -0.228, 0.064, -0.982, 192.0, 0.0, 0.0, 0.0, 0.0, 0.0, 0.0, 0.0, 0.0, 0.0, 1.677706089344276E9, 0.0, 2023-03-01 13:28:09.344
202.0, 29611.076964268326, 13714.069272764835, 0.0, -187500.02235174447, 0.0, 0.0, 0.0, -187500.02235174447, -0.228, 0.064, -0.982, 192.0, 0.0, 0.0, 0.0, 0.0, 0.0, 0.0, 0.0, 0.0, 0.0, 1.677706089344289E9, 0.0, 2023-03-01 13:28:09.344
203.0, 29596.436571650098, 13719.120767011735, 0.0, -187500.02235174447, 0.0, 0.0, 0.0, -187500.02235174447, -0.228, 0.064, -0.982, 192.0, 0.0, 0.0, 0.0, 0.0, 0.0, 0.0, 0.0, 0.0, 0.0, 1.677706089351249E9, 0.0, 2023-03-01 13:28:09.351
204.0, 29635.86504886926, 13778.978738663047, 0.0, -187500.02235174447, 0.0, 0.0, 0.0, -187500.02235174447, -0.228, 0.064, -0.982, 192.0, 0.0, 0.0, 0.0, 0.0, 0.0, 0.0, 0.0, 0.0, 0.0, 1.677706089351258E9, 0.0, 2023-03-01 13:28:09.351
205.0, 29651.846546154804, 13774.150761860701, 0.0, -187500.02235174447, 0.0, 0.0, 0.0, -187500.02235174447, -0.228, 0.064, -0.982, 192.0, 0.0, 0.0, 0.0, 0.0, 0.0, 0.0, 0.0, 0.0, 0.0, 1.677706089358748E9, 0.0, 2023-03-01 13:28:09.358
206.0, 29613.2897869694, 13717.936124555603, 0.0, -187500.02235174447, 0.0, 0.0, 0.0, -187500.02235174447, -0.228, 0.064, -0.982, 192.0, 0.0, 0.0, 0.0, 0.0, 0.0, 0.0, 0.0, 0.0, 0.0, 1.677706089358767E9, 0.0, 2023-03-01 13:28:09.358
207.0, 29595.05076349387, 13709.956551785059, 0.0, -187500.02235174447, 0.0, 0.0, 0.0, -187500.02235174447, -0.228, 0.062, -0.982, 192.0, 248.0, 224.0, 1.0, 240.0, 225.0, 80.0, 0.0, 0.0, 0.0, 1.677706089366782E9, 0.0, 2023-03-01 13:28:09.366
208.0, 29646.370368763255, 13772.116753115268, 0.0, -187500.02235174447, 0.0, 0.0, 0.0, -187500.02235174447, -0.228, 0.062, -0.982, 192.0, 0.0, 0.0, 0.0, 0.0, 0.0, 0.0, 0.0, 0.0, 0.0, 1.677706089366798E9, 0.0, 2023-03-01 13:28:09.366
209.0, 29666.39753179521, 13786.980663178047, 0.0, -187500.02235174447, 0.0, 0.0, 0.0, -187500.02235174447, -0.228, 0.062, -0.982, 192.0, 0.0, 0.0, 0.0, 0.0, 0.0, 0.0, 0.0, 0.0, 0.0, 1.677706089374905E9, 0.0, 2023-03-01 13:28:09.374
210.0, 29632.221714523046, 13742.1430638007, 0.0, -187500.02235174447, 0.0, 0.0, 0.0, -187500.02235174447, -0.228, 0.062, -0.982, 192.0, 0.0, 0.0, 0.0, 0.0, 0.0, 0.0, 0.0, 0.0, 0.0, 1.677706089374921E9, 0.0, 2023-03-01 13:28:09.374
211.0, 29609.42293517863, 13722.227659491022, 0.0, -187500.02235174447, 0.0, 0.0, 0.0, -187500.02235174447, -0.228, 0.062, -0.982, 192.0, 0.0, 0.0, 0.0, 0.0, 0.0, 0.0, 0.0, 0.0, 0.0, 1.677706089381514E9, 0.0, 2023-03-01 13:28:09.381
212.0, 29642.503516972487, 13771.53560775943, 0.0, -187500.02235174447, 0.0, 0.0, 0.0, -187500.02235174447, -0.228, 0.062, -0.982, 192.0, 0.0, 0.0, 0.0, 0.0, 0.0, 0.0, 0.0, 0.0, 0.0, 1.677706089381561E9, 0.0, 2023-03-01 13:28:09.381
213.0, 29663.178880593645, 13796.748375505016, 0.0, -187500.02235174447, 0.0, 0.0, 0.0, -187500.02235174447, -0.228, 0.062, -0.982, 192.0, 0.0, 0.0, 0.0, 0.0, 0.0, 0.0, 0.0, 0.0, 0.0, 1.677706089389465E9, 0.0, 2023-03-01 13:28:09.389
214.0, 29631.68527265612, 13750.413209249165, 0.0, -187500.02235174447, 0.0, 0.0, 0.0, -187500.02235174447, -0.228, 0.062, -0.982, 192.0, 0.0, 0.0, 0.0, 0.0, 0.0, 0.0, 0.0, 0.0, 0.0, 1.677706089389475E9, 0.0, 2023-03-01 13:28:09.389
215.0, 29595.29663268288, 13708.011950017448, 0.0, -187500.02235174447, 0.0, 0.0, 0.0, -187500.02235174447, -0.228, 0.062, -0.982, 192.0, 0.0, 0.0, 0.0, 0.0, 0.0, 0.0, 0.0, 0.0, 0.0, 1.677706089396583E9, 0.0, 2023-03-01 13:28:09.396
216.0, 29621.00113880648, 13754.503578484486, 0.0, -187500.02235174447, 0.0, 0.0, 0.0, -187500.02235174447, -0.228, 0.062, -0.982, 192.0, 0.0, 0.0, 0.0, 0.0, 0.0, 0.0, 0.0, 0.0, 0.0, 1.677706089404504E9, 0.0, 2023-03-01 13:28:09.404
217.0, 29656.808633423883, 13804.616189553284, 0.0, -187500.02235174447, 0.0, 0.0, 0.0, -187500.02235174447, -0.228, 0.062, -0.982, 192.0, 0.0, 0.0, 0.0, 0.0, 0.0, 0.0, 0.0, 0.0, 0.0, 1.677706089404526E9, 0.0, 2023-03-01 13:28:09.404
218.0, 29642.503516972487, 13760.806770420882, 0.0, -187500.02235174447, 0.0, 0.0, 0.0, -187500.02235174447, -0.232, 0.064, -0.982, 192.0, 248.0, 192.0, 2.0, 0.0, 225.0, 80.0, 0.0, 0.0, 0.0, 1.677706089411141E9, 0.0, 2023-03-01 13:28:09.411
219.0, 29606.874836310726, 13707.85548780626, 0.0, -187500.02235174447, 0.0, 0.0, 0.0, -187500.02235174447, -0.232, 0.064, -0.982, 192.0, 0.0, 0.0, 0.0, 0.0, 0.0, 0.0, 0.0, 0.0, 0.0, 1.677706089411158E9, 0.0, 2023-03-01 13:28:09.411
220.0, 29627.81842086535, 13749.72030517105, 0.0, -187500.02235174447, 0.0, 0.0, 0.0, -187500.02235174447, -0.232, 0.064, -0.982, 192.0, 0.0, 0.0, 0.0, 0.0, 0.0, 0.0, 0.0, 0.0, 0.0, 1.677706089419134E9, 0.0, 2023-03-01 13:28:09.419
221.0, 29665.21288933908, 13810.271180900478, 0.0, -187500.02235174447, 0.0, 0.0, 0.0, -187500.02235174447, -0.232, 0.064, -0.982, 192.0, 0.0, 0.0, 0.0, 0.0, 0.0, 0.0, 0.0, 0.0, 0.0, 1.677706089419146E9, 0.0, 2023-03-01 13:28:09.419
222.0, 29655.69104620112, 13792.769764991972, 0.0, -187500.02235174447, 0.0, 0.0, 0.0, -187500.02235174447, -0.232, 0.064, -0.982, 192.0, 0.0, 0.0, 0.0, 0.0, 0.0, 0.0, 0.0, 0.0, 0.0, 1.677706089427176E9, 0.0, 2023-03-01 13:28:09.427
223.0, 29612.57453114683, 13727.077988037825, 0.0, -187500.02235174447, 0.0, 0.0, 0.0, -187500.02235174447, -0.232, 0.064, -0.982, 192.0, 0.0, 0.0, 0.0, 0.0, 0.0, 0.0, 0.0, 0.0, 0.0, 1.677706089427188E9, 0.0, 2023-03-01 13:28:09.427
224.0, 29613.490952669497, 13735.884575353215, 0.0, -187500.02235174447, 0.0, 0.0, 0.0, -187500.02235174447, -0.232, 0.064, -0.982, 192.0, 0.0, 0.0, 0.0, 0.0, 0.0, 0.0, 0.0, 0.0, 0.0, 1.677706089434246E9, 0.0, 2023-03-01 13:28:09.434
225.0, 29657.52388924645, 13795.966064449081, 0.0, -187500.02235174447, 0.0, 0.0, 0.0, -187500.02235174447, -0.232, 0.064, -0.982, 192.0, 0.0, 0.0, 0.0, 0.0, 0.0, 0.0, 0.0, 0.0, 0.0, 1.677706089434255E9, 0.0, 2023-03-01 13:28:09.434
226.0, 29654.998142123004, 13779.895160185715, 0.0, -187500.02235174447, 0.0, 0.0, 0.0, -187500.02235174447, -0.232, 0.064, -0.982, 192.0, 0.0, 0.0, 0.0, 0.0, 0.0, 0.0, 0.0, 0.0, 0.0, 1.677706089441869E9, 0.0, 2023-03-01 13:28:09.441
227.0, 29614.452077681075, 13719.187822245101, 0.0, -187500.02235174447, 0.0, 0.0, 0.0, -187500.02235174447, -0.232, 0.064, -0.982, 192.0, 0.0, 0.0, 0.0, 0.0, 0.0, 0.0, 0.0, 0.0, 0.0, 1.677706089441894E9, 0.0, 2023-03-01 13:28:09.441
228.0, 29603.007984519958, 13718.986656545003, 0.0, -187500.02235174447, 0.0, 0.0, 0.0, -187500.02235174447, -0.23, 0.066, -0.984, 192.0, 248.0, 208.0, 2.0, 16.0, 225.0, 64.0, 0.0, 0.0, 0.0, 1.677706089449799E9, 0.0, 2023-03-01 13:28:09.449
229.0, 29649.320799031357, 13782.1526863757, 0.0, -187500.02235174447, 0.0, 0.0, 0.0, -187500.02235174447, -0.23, 0.066, -0.984, 192.0, 0.0, 0.0, 0.0, 0.0, 0.0, 0.0, 0.0, 0.0, 0.0, 1.677706089449814E9, 0.0, 2023-03-01 13:28:09.449
230.0, 29661.122520103756, 13791.96510219158, 0.0, -187500.02235174447, 0.0, 0.0, 0.0, -187500.02235174447, -0.23, 0.066, -0.984, 192.0, 0.0, 0.0, 0.0, 0.0, 0.0, 0.0, 0.0, 0.0, 0.0, 1.67770608945681E9, 0.0, 2023-03-01 13:28:09.456
231.0, 29617.760135860462, 13738.075046309836, 0.0, -187500.02235174447, 0.0, 0.0, 0.0, -187500.02235174447, -0.23, 0.066, -0.984, 192.0, 0.0, 0.0, 0.0, 0.0, 0.0, 0.0, 0.0, 0.0, 0.0, 1.677706089464002E9, 0.0, 2023-03-01 13:28:09.464
232.0, 29601.44336240809, 13720.350112956778, 0.0, -187500.02235174447, 0.0, 0.0, 0.0, -187500.02235174447, -0.23, 0.066, -0.984, 192.0, 0.0, 0.0, 0.0, 0.0, 0.0, 0.0, 0.0, 0.0, 0.0, 1.677706089464012E9, 0.0, 2023-03-01 13:28:09.464
233.0, 29641.073005327347, 13778.889331685226, 0.0, -187500.02235174447, 0.0, 0.0, 0.0, -187500.02235174447, -0.23, 0.066, -0.984, 192.0, 0.0, 0.0, 0.0, 0.0, 0.0, 0.0, 0.0, 0.0, 0.0, 1.677706089471418E9, 0.0, 2023-03-01 13:28:09.471
234.0, 29657.367427035264, 13796.368395849277, 0.0, -187500.02235174447, 0.0, 0.0, 0.0, -187500.02235174447, -0.23, 0.066, -0.984, 192.0, 0.0, 0.0, 0.0, 0.0, 0.0, 0.0, 0.0, 0.0, 0.0, 1.677706089471427E9, 0.0, 2023-03-01 13:28:09.471
235.0, 29622.543409173897, 13734.76698813045, 0.0, -187500.02235174447, 0.0, 0.0, 0.0, -187500.02235174447, -0.23, 0.066, -0.984, 192.0, 0.0, 0.0, 0.0, 0.0, 0.0, 0.0, 0.0, 0.0, 0.0, 1.677706089479457E9, 0.0, 2023-03-01 13:28:09.479
236.0, 29593.597900104276, 13702.960455770548, 0.0, -187500.02235174447, 0.0, 0.0, 0.0, -187500.02235174447, -0.23, 0.066, -0.984, 192.0, 0.0, 0.0, 0.0, 0.0, 0.0, 0.0, 0.0, 0.0, 0.0, 1.677706089479472E9, 0.0, 2023-03-01 13:28:09.479
237.0, 29625.493839442, 13756.96227037457, 0.0, -187500.02235174447, 0.0, 0.0, 0.0, -187500.02235174447, -0.23, 0.066, -0.984, 192.0, 0.0, 0.0, 0.0, 0.0, 0.0, 0.0, 0.0, 0.0, 0.0, 1.67770608948653E9, 0.0, 2023-03-01 13:28:09.486
238.0, 29660.83194742584, 13791.696881258116, 0.0, -187500.02235174447, 0.0, 0.0, 0.0, -187500.02235174447, -0.228, 0.066, -0.986, 192.0, 248.0, 224.0, 2.0, 16.0, 225.0, 48.0, 0.0, 0.0, 0.0, 1.677706089486544E9, 0.0, 2023-03-01 13:28:09.486
239.0, 29639.642493682208, 13748.021572592446, 0.0, -187500.02235174447, 0.0, 0.0, 0.0, -187500.02235174447, -0.228, 0.066, -0.986, 192.0, 0.0, 0.0, 0.0, 0.0, 0.0, 0.0, 0.0, 0.0, 0.0, 1.677706089494096E9, 0.0, 2023-03-01 13:28:09.494
240.0, 29598.202359462066, 13709.800089573871, 0.0, -187500.02235174447, 0.0, 0.0, 0.0, -187500.02235174447, -0.228, 0.066, -0.986, 192.0, 0.0, 0.0, 0.0, 0.0, 0.0, 0.0, 0.0, 0.0, 0.0, 1.677706089494115E9, 0.0, 2023-03-01 13:28:09.494
241.0, 29621.604635906773, 13756.62699420774, 0.0, -187500.02235174447, 0.0, 0.0, 0.0, -187500.02235174447, -0.228, 0.066, -0.986, 192.0, 0.0, 0.0, 0.0, 0.0, 0.0, 0.0, 0.0, 0.0, 0.0, 1.677706089502102E9, 0.0, 2023-03-01 13:28:09.502
242.0, 29657.54624099091, 13799.654102284207, 0.0, -187500.02235174447, 0.0, 0.0, 0.0, -187500.02235174447, -0.228, 0.066, -0.986, 192.0, 0.0, 0.0, 0.0, 0.0, 0.0, 0.0, 0.0, 0.0, 0.0, 1.677706089502115E9, 0.0, 2023-03-01 13:28:09.502
243.0, 29635.52977270243, 13759.040982608913, 0.0, -187500.02235174447, 0.0, 0.0, 0.0, -187500.02235174447, -0.228, 0.066, -0.986, 192.0, 0.0, 0.0, 0.0, 0.0, 0.0, 0.0, 0.0, 0.0, 0.0, 1.677706089509989E9, 0.0, 2023-03-01 13:28:09.509
244.0, 29596.995365261482, 13702.915752281637, 0.0, -187500.02235174447, 0.0, 0.0, 0.0, -187500.02235174447, -0.228, 0.066, -0.986, 192.0, 0.0, 0.0, 0.0, 0.0, 0.0, 0.0, 0.0, 0.0, 0.0, 1.677706089510001E9, 0.0, 2023-03-01 13:28:09.510
245.0, 29607.925368300126, 13734.1411392857, 0.0, -187500.02235174447, 0.0, 0.0, 0.0, -187500.02235174447, -0.228, 0.066, -0.986, 192.0, 0.0, 0.0, 0.0, 0.0, 0.0, 0.0, 0.0, 0.0, 0.0, 1.677706089516271E9, 0.0, 2023-03-01 13:28:09.516
246.0, 29648.73965367552, 13787.606512022796, 0.0, -187500.02235174447, 0.0, 0.0, 0.0, -187500.02235174447, -0.228, 0.066, -0.986, 192.0, 0.0, 0.0, 0.0, 0.0, 0.0, 0.0, 0.0, 0.0, 0.0, 1.677706089516279E9, 0.0, 2023-03-01 13:28:09.516
