%OpenBCI Raw EEG Data
%Number of channels = 8
%Sample Rate = 250 Hz
%Board = OpenBCI_GUI$BoardCytonSerial
Sample Index, EXG Channel 0, EXG Channel 1, EXG Channel 2, EXG Channel 3, EXG Channel 4, EXG Channel 5, EXG Channel 6, EXG Channel 7, Accel Channel 0, Accel Channel 1, Accel Channel 2, Other, Other, Other, Other, Other, Other, Other, Analog Channel 0, Analog Channel 1, Analog Channel 2, Timestamp, Other, Timestamp (Formatted)
165.0, 29140.729205695297, 14274.136933581465, 0.0, -187500.02235174447, 0.0, 0.0, 0.0, -187500.02235174447, 0.0, 0.0, 0.0, 192.0, 0.0, 0.0, 0.0, 0.0, 0.0, 0.0, 0.0, 0.0, 0.0, 1.677706274673882E9, 0.0, 2023-03-01 13:31:14.673
166.0, 29158.29767683717, 14279.233131317274, 0.0, -187500.02235174447, 0.0, 0.0, 0.0, -187500.02235174447, 0.0, 0.0, 0.0, 192.0, 0.0, 0.0, 0.0, 0.0, 0.0, 0.0, 0.0, 0.0, 0.0, 1.677706274673905E9, 0.0, 2023-03-01 13:31:14.673
167.0, 29107.402754712435, 14208.981598494245, 0.0, -187500.02235174447, 0.0, 0.0, 0.0, -187500.02235174447, 0.0, 0.0, 0.0, 192.0, 0.0, 0.0, 0.0, 0.0, 0.0, 0.0, 0.0, 0.0, 0.0, 1.677706274673913E9, 0.0, 2023-03-01 13:31:14.673
168.0, 29082.637021855953, 14193.827115753546, 0.0, -187500.02235174447, 0.0, 0.0, 0.0, -187500.02235174447, 0.0, 0.0, 0.0, 192.0, 0.0, 0.0, 0.0, 0.0, 0.0, 0.0, 0.0, 0.0, 0.0, 1.67770627467392E9, 0.0, 2023-03-01 13:31:14.673
169.0, 29127.787545655676, 14262.290509020151, 0.0, -187500.02235174447, 0.0, 0.0, 0.0, -187500.02235174447, 0.0, 0.0, 0.0, 192.0, 0.0, 0.0, 0.0, 0.0, 0.0, 0.0, 0.0, 0.0, 0.0, 1.677706274673928E9, 0.0, 2023-03-01 13:31:14.673
0.0, 0.0, 0.0, 0.0, 0.0, 0.0, 0.0, 0.0, 0.0, -0.274, 0.20600000000000002, -0.9420000000000001, 192.0, 247.0, 112.0, 6.0, 112.0, 226.0, 144.0, 0.0, 0.0, 0.0, 1.677706274792197E9, 0.0, 2023-03-01 13:31:14.792
1.0, 28745.192735814184, 15233.20558466978, 0.0, -187500.02235174447, 0.0, 0.0, 0.0, -187500.02235174447, -0.274, 0.20600000000000002, -0.9420000000000001, 192.0, 0.0, 0.0, 0.0, 0.0, 0.0, 0.0, 0.0, 0.0, 0.0, 1.677706274798216E9, 0.0, 2023-03-01 13:31:14.798
2.0, 28777.111026896364, 15269.437762431833, 0.0, -187500.02235174447, 0.0, 0.0, 0.0, -187500.02235174447, -0.274, 0.20600000000000002, -0.9420000000000001, 192.0, 0.0, 0.0, 0.0, 0.0, 0.0, 0.0, 0.0, 0.0, 0.0, 1.677706274798228E9, 0.0, 2023-03-01 13:31:14.798
3.0, 28776.35106758488, 15255.154997724892, 0.0, -187500.02235174447, 0.0, 0.0, 0.0, -187500.02235174447, -0.274, 0.20600000000000002, -0.9420000000000001, 192.0, 0.0, 0.0, 0.0, 0.0, 0.0, 0.0, 0.0, 0.0, 0.0, 1.677706274804441E9, 0.0, 2023-03-01 13:31:14.804
4.0, 28752.188831828695, 15221.001532197182, 0.0, -187500.02235174447, 0.0, 0.0, 0.0, -187500.02235174447, -0.274, 0.20600000000000002, -0.9420000000000001, 192.0, 0.0, 0.0, 0.0, 0.0, 0.0, 0.0, 0.0, 0.0, 0.0, 1.677706274804454E9, 0.0, 2023-03-01 13:31:14.804
5.0, 28751.630038217314, 15237.765340538663, 0.0, -187500.02235174447, 0.0, 0.0, 0.0, -187500.02235174447, -0.274, 0.20600000000000002, -0.9420000000000001, 192.0, 0.0, 0.0, 0.0, 0.0, 0.0, 0.0, 0.0, 0.0, 0.0, 1.677706274811796E9, 0.0, 2023-03-01 13:31:14.811
6.0, 28775.88168095132, 15272.388192699933, 0.0, -187500.02235174447, 0.0, 0.0, 0.0, -187500.02235174447, -0.274, 0.20600000000000002, -0.9420000000000001, 192.0, 0.0, 0.0, 0.0, 0.0, 0.0, 0.0, 0.0, 0.0, 0.0, 1.677706274811811E9, 0.0, 2023-03-01 13:31:14.811
7.0, 28792.377268359338, 15266.241462974724, 0.0, -187500.02235174447, 0.0, 0.0, 0.0, -187500.02235174447, -0.274, 0.20600000000000002, -0.9420000000000001, 192.0, 0.0, 0.0, 0.0, 0.0, 0.0, 0.0, 0.0, 0.0, 0.0, 1.67770627481985E9, 0.0, 2023-03-01 13:31:14.819
8.0, 28773.713561739158, 15231.35038987999, 0.0, -187500.02235174447, 0.0, 0.0, 0.0, -187500.02235174447, -0.28800000000000003, 0.274, -0.922, 192.0, 247.0, 0.0, 8.0, 144.0, 227.0, 48.0, 0.0, 0.0, 0.0, 1.677706274819872E9, 0.0, 2023-03-01 13:31:14.819
9.0, 28756.770939442034, 15237.251250416191, 0.0, -187500.02235174447, 0.0, 0.0, 0.0, -187500.02235174447, -0.28800000000000003, 0.274, -0.922, 192.0, 0.0, 0.0, 0.0, 0.0, 0.0, 0.0, 0.0, 0.0, 0.0, 1.677706274826209E9, 0.0, 2023-03-01 13:31:14.826
10.0, 28776.93221294072, 15275.07040203457, 0.0, -187500.02235174447, 0.0, 0.0, 0.0, -187500.02235174447, -0.28800000000000003, 0.274, -0.922, 192.0, 0.0, 0.0, 0.0, 0.0, 0.0, 0.0, 0.0, 0.0, 0.0, 1.677706274834097E9, 0.0, 2023-03-01 13:31:14.834
11.0, 28781.961355443163, 15270.77886709915, 0.0, -187500.02235174447, 0.0, 0.0, 0.0, -187500.02235174447, -0.28800000000000003, 0.274, -0.922, 192.0, 0.0, 0.0, 0.0, 0.0, 0.0, 0.0, 0.0, 0.0, 0.0, 1.677706274834108E9, 0.0, 2023-03-01 13:31:14.834
12.0, 28755.02750337452, 15230.322209635046, 0.0, -187500.02235174447, 0.0, 0.0, 0.0, -187500.02235174447, -0.28800000000000003, 0.274, -0.922, 192.0, 0.0, 0.0, 0.0, 0.0, 0.0, 0.0, 0.0, 0.0, 0.0, 1.677706274842113E9, 0.0, 2023-03-01 13:31:14.842
13.0, 28741.124718323317, 15223.504927576178, 0.0, -187500.02235174447, 0.0, 0.0, 0.0, -187500.02235174447, -0.28800000000000003, 0.274, -0.922, 192.0, 0.0, 0.0, 0.0, 0.0, 0.0, 0.0, 0.0, 0.0, 0.0, 1.677706274842122E9, 0.0, 2023-03-01 13:31:14.842
14.0, 28772.12658788283, 15269.460114176289, 0.0, -187500.02235174447, 0.0, 0.0, 0.0, -187500.02235174447, -0.28800000000000003, 0.274, -0.922, 192.0, 0.0, 0.0, 0.0, 0.0, 0.0, 0.0, 0.0, 0.0, 0.0, 1.677706274849333E9, 0.0, 2023-03-01 13:31:14.849
15.0, 28784.442399077703, 15277.730259624752, 0.0, -187500.02235174447, 0.0, 0.0, 0.0, -187500.02235174447, -0.28800000000000003, 0.274, -0.922, 192.0, 0.0, 0.0, 0.0, 0.0, 0.0, 0.0, 0.0, 0.0, 0.0, 1.677706274849347E9, 0.0, 2023-03-01 13:31:14.849
16.0, 28768.393846558793, 15244.940250508816, 0.0, -187500.02235174447, 0.0, 0.0, 0.0, -187500.02235174447, -0.28800000000000003, 0.274, -0.922, 192.0, 0.0, 0.0, 0.0, 0.0, 0.0, 0.0, 0.0, 0.0, 0.0, 1.677706274856734E9, 0.0, 2023-03-01 13:31:14.856
17.0, 28759.631962732314, 15221.359160108466, 0.0, -187500.02235174447, 0.0, 0.0, 0.0, -187500.02235174447, -0.28800000000000003, 0.274, -0.922, 192.0, 0.0, 0.0, 0.0, 0.0, 0.0, 0.0, 0.0, 0.0, 0.0, 1.677706274856755E9, 0.0, 2023-03-01 13:31:14.856
18.0, 28780.419085075748, 15249.92468952235, 0.0, -187500.02235174447, 0.0, 0.0, 0.0, -187500.02235174447, -0.296, 0.306, -0.908, 192.0, 246.0, 192.0, 9.0, 144.0, 227.0, 160.0, 0.0, 0.0, 0.0, 1.677706274864766E9, 0.0, 2023-03-01 13:31:14.864
19.0, 28792.690192781713, 15277.752611369207, 0.0, -187500.02235174447, 0.0, 0.0, 0.0, -187500.02235174447, -0.296, 0.306, -0.908, 192.0, 0.0, 0.0, 0.0, 0.0, 0.0, 0.0, 0.0, 0.0, 0.0, 1.677706274864781E9, 0.0, 2023-03-01 13:31:14.864
20.0, 28774.831148961923, 15248.605936599486, 0.0, -187500.02235174447, 0.0, 0.0, 0.0, -187500.02235174447, -0.296, 0.306, -0.908, 192.0, 0.0, 0.0, 0.0, 0.0, 0.0, 0.0, 0.0, 0.0, 0.0, 1.677706274871923E9, 0.0, 2023-03-01 13:31:14.871
21.0, 28744.030445102508, 15210.943247192294, 0.0, -187500.02235174447, 0.0, 0.0, 0.0, -187500.02235174447, -0.296, 0.306, -0.908, 192.0, 0.0, 0.0, 0.0, 0.0, 0.0, 0.0, 0.0, 0.0, 0.0, 1.677706274871933E9, 0.0, 2023-03-01 13:31:14.871
22.0, 28748.187869571197, 15239.173500439347, 0.0, -187500.02235174447, 0.0, 0.0, 0.0, -187500.02235174447, -0.296, 0.306, -0.908, 192.0, 0.0, 0.0, 0.0, 0.0, 0.0, 0.0, 0.0, 0.0, 0.0, 1.677706274879423E9, 0.0, 2023-03-01 13:31:14.879
23.0, 28767.87975643632, 15269.683631620841, 0.0, -187500.02235174447, 0.0, 0.0, 0.0, -187500.02235174447, -0.296, 0.306, -0.908, 192.0, 0.0, 0.0, 0.0, 0.0, 0.0, 0.0, 0.0, 0.0, 0.0, 1.677706274879434E9, 0.0, 2023-03-01 13:31:14.879
24.0, 28756.50271850857, 15249.388247655423, 0.0, -187500.02235174447, 0.0, 0.0, 0.0, -187500.02235174447, -0.296, 0.306, -0.908, 192.0, 0.0, 0.0, 0.0, 0.0, 0.0, 0.0, 0.0, 0.0, 0.0, 1.677706274886377E9, 0.0, 2023-03-01 13:31:14.886
25.0, 28742.197602057175, 15216.86645947295, 0.0, -187500.02235174447, 0.0, 0.0, 0.0, -187500.02235174447, -0.296, 0.306, -0.908, 192.0, 0.0, 0.0, 0.0, 0.0, 0.0, 0.0, 0.0, 0.0, 0.0, 1.677706274894471E9, 0.0, 2023-03-01 13:31:14.894
26.0, 28762.068302877942, 15238.368837638956, 0.0, -187500.02235174447, 0.0, 0.0, 0.0, -187500.02235174447, -0.296, 0.306, -0.908, 192.0, 0.0, 0.0, 0.0, 0.0, 0.0, 0.0, 0.0, 0.0, 0.0, 1.677706274894491E9, 0.0, 2023-03-01 13:31:14.894
27.0, 28794.433628849227, 15282.379422471455, 0.0, -187500.02235174447, 0.0, 0.0, 0.0, -187500.02235174447, -0.296, 0.306, -0.908, 192.0, 0.0, 0.0, 0.0, 0.0, 0.0, 0.0, 0.0, 0.0, 0.0, 1.677706274901545E9, 0.0, 2023-03-01 13:31:14.901
28.0, 28787.102256667884, 15267.671974619863, 0.0, -187500.02235174447, 0.0, 0.0, 0.0, -187500.02235174447, -0.304, 0.32, -0.906, 192.0, 246.0, 128.0, 10.0, 0.0, 227.0, 176.0, 0.0, 0.0, 0.0, 1.6777062749016E9, 0.0, 2023-03-01 13:31:14.901
29.0, 28756.301552808472, 15218.542840307098, 0.0, -187500.02235174447, 0.0, 0.0, 0.0, -187500.02235174447, -0.304, 0.32, -0.906, 192.0, 0.0, 0.0, 0.0, 0.0, 0.0, 0.0, 0.0, 0.0, 0.0, 1.677706274909058E9, 0.0, 2023-03-01 13:31:14.909
30.0, 28762.940020911698, 15224.667218287852, 0.0, -187500.02235174447, 0.0, 0.0, 0.0, -187500.02235174447, -0.304, 0.32, -0.906, 192.0, 0.0, 0.0, 0.0, 0.0, 0.0, 0.0, 0.0, 0.0, 0.0, 1.677706274909073E9, 0.0, 2023-03-01 13:31:14.909
31.0, 28779.726180997633, 15268.275471720157, 0.0, -187500.02235174447, 0.0, 0.0, 0.0, -187500.02235174447, -0.304, 0.32, -0.906, 192.0, 0.0, 0.0, 0.0, 0.0, 0.0, 0.0, 0.0, 0.0, 0.0, 1.67770627491701E9, 0.0, 2023-03-01 13:31:14.917
32.0, 28773.8923756948, 15268.275471720157, 0.0, -187500.02235174447, 0.0, 0.0, 0.0, -187500.02235174447, -0.304, 0.32, -0.906, 192.0, 0.0, 0.0, 0.0, 0.0, 0.0, 0.0, 0.0, 0.0, 0.0, 1.677706274917023E9, 0.0, 2023-03-01 13:31:14.917
33.0, 28744.54453522498, 15221.20269789728, 0.0, -187500.02235174447, 0.0, 0.0, 0.0, -187500.02235174447, -0.304, 0.32, -0.906, 192.0, 0.0, 0.0, 0.0, 0.0, 0.0, 0.0, 0.0, 0.0, 0.0, 1.677706274925583E9, 0.0, 2023-03-01 13:31:14.925
34.0, 28736.430851987705, 15210.67502625883, 0.0, -187500.02235174447, 0.0, 0.0, 0.0, -187500.02235174447, -0.304, 0.32, -0.906, 192.0, 0.0, 0.0, 0.0, 0.0, 0.0, 0.0, 0.0, 0.0, 0.0, 1.677706274925592E9, 0.0, 2023-03-01 13:31:14.925
35.0, 28764.392884301295, 15250.103503477992, 0.0, -187500.02235174447, 0.0, 0.0, 0.0, -187500.02235174447, -0.304, 0.32, -0.906, 192.0, 0.0, 0.0, 0.0, 0.0, 0.0, 0.0, 0.0, 0.0, 0.0, 1.677706274931724E9, 0.0, 2023-03-01 13:31:14.931
36.0, 28775.658163506767, 15255.937308780827, 0.0, -187500.02235174447, 0.0, 0.0, 0.0, -187500.02235174447, -0.304, 0.32, -0.906, 192.0, 0.0, 0.0, 0.0, 0.0, 0.0, 0.0, 0.0, 0.0, 0.0, 1.677706274931738E9, 0.0, 2023-03-01 13:31:14.931
37.0, 28751.183003328206, 15229.115215434458, 0.0, -187500.02235174447, 0.0, 0.0, 0.0, -187500.02235174447, -0.304, 0.32, -0.906, 192.0, 0.0, 0.0, 0.0, 0.0, 0.0, 0.0, 0.0, 0.0, 0.0, 1.677706274939614E9, 0.0, 2023-03-01 13:31:14.939
38.0, 28746.936171881698, 15217.894639717895, 0.0, -187500.02235174447, 0.0, 0.0, 0.0, -187500.02235174447, -0.304, 0.328, -0.9, 192.0, 246.0, 128.0, 10.0, 64.0, 227.0, 224.0, 0.0, 0.0, 0.0, 1.67770627493964E9, 0.0, 2023-03-01 13:31:14.939
39.0, 28774.652335006278, 15258.418352415367, 0.0, -187500.02235174447, 0.0, 0.0, 0.0, -187500.02235174447, -0.304, 0.328, -0.9, 192.0, 0.0, 0.0, 0.0, 0.0, 0.0, 0.0, 0.0, 0.0, 0.0, 1.677706274946766E9, 0.0, 2023-03-01 13:31:14.946
40.0, 28792.623137548348, 15271.672936877363, 0.0, -187500.02235174447, 0.0, 0.0, 0.0, -187500.02235174447, -0.304, 0.328, -0.9, 192.0, 0.0, 0.0, 0.0, 0.0, 0.0, 0.0, 0.0, 0.0, 0.0, 1.677706274946793E9, 0.0, 2023-03-01 13:31:14.946
41.0, 28761.956544155666, 15237.005381227182, 0.0, -187500.02235174447, 0.0, 0.0, 0.0, -187500.02235174447, -0.304, 0.328, -0.9, 192.0, 0.0, 0.0, 0.0, 0.0, 0.0, 0.0, 0.0, 0.0, 0.0, 1.677706274954845E9, 0.0, 2023-03-01 13:31:14.954
42.0, 28718.147125023264, 15191.944264405283, 0.0, -187500.02235174447, 0.0, 0.0, 0.0, -187500.02235174447, -0.304, 0.328, -0.9, 192.0, 0.0, 0.0, 0.0, 0.0, 0.0, 0.0, 0.0, 0.0, 0.0, 1.677706274961303E9, 0.0, 2023-03-01 13:31:14.961
43.0, 28753.440529518193, 15239.307610906078, 0.0, -187500.02235174447, 0.0, 0.0, 0.0, -187500.02235174447, -0.304, 0.328, -0.9, 192.0, 0.0, 0.0, 0.0, 0.0, 0.0, 0.0, 0.0, 0.0, 0.0, 1.677706274961313E9, 0.0, 2023-03-01 13:31:14.961
44.0, 28792.444323592703, 15281.5077044377, 0.0, -187500.02235174447, 0.0, 0.0, 0.0, -187500.02235174447, -0.304, 0.328, -0.9, 192.0, 0.0, 0.0, 0.0, 0.0, 0.0, 0.0, 0.0, 0.0, 0.0, 1.677706274969314E9, 0.0, 2023-03-01 13:31:14.969
45.0, 28752.233535317606, 15231.886831746917, 0.0, -187500.02235174447, 0.0, 0.0, 0.0, -187500.02235174447, -0.304, 0.328, -0.9, 192.0, 0.0, 0.0, 0.0, 0.0, 0.0, 0.0, 0.0, 0.0, 0.0, 1.677706274969356E9, 0.0, 2023-03-01 13:31:14.969
46.0, 28713.92264532121, 15185.730479446707, 0.0, -187500.02235174447, 0.0, 0.0, 0.0, -187500.02235174447, -0.304, 0.328, -0.9, 192.0, 0.0, 0.0, 0.0, 0.0, 0.0, 0.0, 0.0, 0.0, 0.0, 1.677706274977368E9, 0.0, 2023-03-01 13:31:14.977
47.0, 28761.487157522104, 15240.536956851121, 0.0, -187500.02235174447, 0.0, 0.0, 0.0, -187500.02235174447, -0.304, 0.328, -0.9, 192.0, 0.0, 0.0, 0.0, 0.0, 0.0, 0.0, 0.0, 0.0, 0.0, 1.677706274977384E9, 0.0, 2023-03-01 13:31:14.977
48.0, 28802.45790510868, 15293.354128999012, 0.0, -187500.02235174447, 0.0, 0.0, 0.0, -187500.02235174447, -0.302, 0.332, -0.902, 192.0, 246.0, 144.0, 10.0, 96.0, 227.0, 208.0, 0.0, 0.0, 0.0, 1.677706274984518E9, 0.0, 2023-03-01 13:31:14.984
49.0, 28771.567794271446, 15246.437817387321, 0.0, -187500.02235174447, 0.0, 0.0, 0.0, -187500.02235174447, -0.302, 0.332, -0.902, 192.0, 0.0, 0.0, 0.0, 0.0, 0.0, 0.0, 0.0, 0.0, 0.0, 1.67770627498454E9, 0.0, 2023-03-01 13:31:14.984
50.0, 28733.0333868305, 15185.52931374661, 0.0, -187500.02235174447, 0.0, 0.0, 0.0, -187500.02235174447, -0.302, 0.332, -0.902, 192.0, 0.0, 0.0, 0.0, 0.0, 0.0, 0.0, 0.0, 0.0, 0.0, 1.677706274992005E9, 0.0, 2023-03-01 13:31:14.992
51.0, 28749.84189866089, 15219.10163391848, 0.0, -187500.02235174447, 0.0, 0.0, 0.0, -187500.02235174447, -0.302, 0.332, -0.902, 192.0, 0.0, 0.0, 0.0, 0.0, 0.0, 0.0, 0.0, 0.0, 0.0, 1.677706274992022E9, 0.0, 2023-03-01 13:31:14.992
52.0, 28795.394753860804, 15290.448402219821, 0.0, -187500.02235174447, 0.0, 0.0, 0.0, -187500.02235174447, -0.302, 0.332, -0.902, 192.0, 0.0, 0.0, 0.0, 0.0, 0.0, 0.0, 0.0, 0.0, 0.0, 1.67770627499992E9, 0.0, 2023-03-01 13:31:14.999
53.0, 28783.816550232954, 15268.297823464613, 0.0, -187500.02235174447, 0.0, 0.0, 0.0, -187500.02235174447, -0.302, 0.332, -0.902, 192.0, 0.0, 0.0, 0.0, 0.0, 0.0, 0.0, 0.0, 0.0, 0.0, 1.677706274999933E9, 0.0, 2023-03-01 13:31:14.999
54.0, 28737.816660143933, 15201.846087198985, 0.0, -187500.02235174447, 0.0, 0.0, 0.0, -187500.02235174447, -0.302, 0.332, -0.902, 192.0, 0.0, 0.0, 0.0, 0.0, 0.0, 0.0, 0.0, 0.0, 0.0, 1.67770627500792E9, 0.0, 2023-03-01 13:31:15.007
55.0, 28741.39293925678, 15223.884907231917, 0.0, -187500.02235174447, 0.0, 0.0, 0.0, -187500.02235174447, -0.302, 0.332, -0.902, 192.0, 0.0, 0.0, 0.0, 0.0, 0.0, 0.0, 0.0, 0.0, 0.0, 1.677706275007929E9, 0.0, 2023-03-01 13:31:15.007
56.0, 28798.591053317912, 15296.773945900673, 0.0, -187500.02235174447, 0.0, 0.0, 0.0, -187500.02235174447, -0.302, 0.332, -0.902, 192.0, 0.0, 0.0, 0.0, 0.0, 0.0, 0.0, 0.0, 0.0, 0.0, 1.677706275014105E9, 0.0, 2023-03-01 13:31:15.014
57.0, 28807.352937144395, 15292.728280154262, 0.0, -187500.02235174447, 0.0, 0.0, 0.0, -187500.02235174447, -0.302, 0.332, -0.902, 192.0, 0.0, 0.0, 0.0, 0.0, 0.0, 0.0, 0.0, 0.0, 0.0, 1.677706275021524E9, 0.0, 2023-03-01 13:31:15.021
58.0, 28744.611590458346, 15215.704168761275, 0.0, -187500.02235174447, 0.0, 0.0, 0.0, -187500.02235174447, -0.296, 0.334, -0.894, 192.0, 246.0, 192.0, 10.0, 112.0, 228.0, 16.0, 0.0, 0.0, 0.0, 1.67770627502154E9, 0.0, 2023-03-01 13:31:15.021
59.0, 28718.34829072336, 15191.944264405283, 0.0, -187500.02235174447, 0.0, 0.0, 0.0, -187500.02235174447, -0.296, 0.334, -0.894, 192.0, 0.0, 0.0, 0.0, 0.0, 0.0, 0.0, 0.0, 0.0, 0.0, 1.677706275029622E9, 0.0, 2023-03-01 13:31:15.029
60.0, 28771.813663460456, 15261.458189661289, 0.0, -187500.02235174447, 0.0, 0.0, 0.0, -187500.02235174447, -0.296, 0.334, -0.894, 192.0, 0.0, 0.0, 0.0, 0.0, 0.0, 0.0, 0.0, 0.0, 0.0, 1.677706275029651E9, 0.0, 2023-03-01 13:31:15.029
61.0, 28804.223692920652, 15276.992652057726, 0.0, -187500.02235174447, 0.0, 0.0, 0.0, -187500.02235174447, -0.296, 0.334, -0.894, 192.0, 0.0, 0.0, 0.0, 0.0, 0.0, 0.0, 0.0, 0.0, 0.0, 1.677706275037556E9, 0.0, 2023-03-01 13:31:15.037
62.0, 28754.133433596307, 15213.96073269376, 0.0, -187500.02235174447, 0.0, 0.0, 0.0, -187500.02235174447, -0.296, 0.334, -0.894, 192.0, 0.0, 0.0, 0.0, 0.0, 0.0, 0.0, 0.0, 0.0, 0.0, 1.677706275037569E9, 0.0, 2023-03-01 13:31:15.037
63.0, 28728.227761772607, 15191.25136032717, 0.0, -187500.02235174447, 0.0, 0.0, 0.0, -187500.02235174447, -0.296, 0.334, -0.894, 192.0, 0.0, 0.0, 0.0, 0.0, 0.0, 0.0, 0.0, 0.0, 0.0, 1.677706275044223E9, 0.0, 2023-03-01 13:31:15.044
64.0, 28782.587204287913, 15248.516529621666, 0.0, -187500.02235174447, 0.0, 0.0, 0.0, -187500.02235174447, -0.296, 0.334, -0.894, 192.0, 0.0, 0.0, 0.0, 0.0, 0.0, 0.0, 0.0, 0.0, 0.0, 1.677706275044235E9, 0.0, 2023-03-01 13:31:15.044
65.0, 28822.194495462718, 15277.484390435744, 0.0, -187500.02235174447, 0.0, 0.0, 0.0, -187500.02235174447, -0.296, 0.334, -0.894, 192.0, 0.0, 0.0, 0.0, 0.0, 0.0, 0.0, 0.0, 0.0, 0.0, 1.677706275052288E9, 0.0, 2023-03-01 13:31:15.052
66.0, 28784.062419421964, 15222.879078731428, 0.0, -187500.02235174447, 0.0, 0.0, 0.0, -187500.02235174447, -0.296, 0.334, -0.894, 192.0, 0.0, 0.0, 0.0, 0.0, 0.0, 0.0, 0.0, 0.0, 0.0, 1.677706275052301E9, 0.0, 2023-03-01 13:31:15.052
67.0, 28724.182096026194, 15182.221255567225, 0.0, -187500.02235174447, 0.0, 0.0, 0.0, -187500.02235174447, -0.296, 0.334, -0.894, 192.0, 0.0, 0.0, 0.0, 0.0, 0.0, 0.0, 0.0, 0.0, 0.0, 1.677706275060356E9, 0.0, 2023-03-01 13:31:15.060
68.0, 28762.135358111307, 15231.43979685781, 0.0, -187500.02235174447, 0.0, 0.0, 0.0, -187500.02235174447, -0.296, 0.334, -0.894, 192.0, 0.0, 0.0, 0.0, 0.0, 0.0, 0.0, 0.0, 0.0, 0.0, 1.677706275060376E9, 0.0, 2023-03-01 13:31:15.060
69.0, 28804.961300487674, 15272.142323510925, 0.0, -187500.02235174447, 0.0, 0.0, 0.0, -187500.02235174447, -0.304, 0.332, -0.894, 192.0, 246.0, 128.0, 10.0, 96.0, 228.0, 16.0, 0.0, 0.0, 0.0, 1.677706275066789E9, 0.0, 2023-03-01 13:31:15.066
70.0, 28779.793236231, 15222.722616520241, 0.0, -187500.02235174447, 0.0, 0.0, 0.0, -187500.02235174447, -0.304, 0.332, -0.894, 192.0, 0.0, 0.0, 0.0, 0.0, 0.0, 0.0, 0.0, 0.0, 0.0, 1.677706275066807E9, 0.0, 2023-03-01 13:31:15.066
71.0, 28732.184020541197, 15179.226121810214, 0.0, -187500.02235174447, 0.0, 0.0, 0.0, -187500.02235174447, -0.304, 0.332, -0.894, 192.0, 0.0, 0.0, 0.0, 0.0, 0.0, 0.0, 0.0, 0.0, 0.0, 1.677706275074085E9, 0.0, 2023-03-01 13:31:15.074
72.0, 28755.563945241447, 15217.24643912869, 0.0, -187500.02235174447, 0.0, 0.0, 0.0, -187500.02235174447, -0.304, 0.332, -0.894, 192.0, 0.0, 0.0, 0.0, 0.0, 0.0, 0.0, 0.0, 0.0, 0.0, 1.677706275081945E9, 0.0, 2023-03-01 13:31:15.081
73.0, 28796.400582361293, 15260.273547205157, 0.0, -187500.02235174447, 0.0, 0.0, 0.0, -187500.02235174447, -0.304, 0.332, -0.894, 192.0, 0.0, 0.0, 0.0, 0.0, 0.0, 0.0, 0.0, 0.0, 0.0, 1.677706275081957E9, 0.0, 2023-03-01 13:31:15.081
74.0, 28769.93611692621, 15226.812985755561, 0.0, -187500.02235174447, 0.0, 0.0, 0.0, -187500.02235174447, -0.304, 0.332, -0.894, 192.0, 0.0, 0.0, 0.0, 0.0, 0.0, 0.0, 0.0, 0.0, 0.0, 1.677706275089859E9, 0.0, 2023-03-01 13:31:15.089
75.0, 28722.036328558486, 15169.994851350171, 0.0, -187500.02235174447, 0.0, 0.0, 0.0, -187500.02235174447, -0.304, 0.332, -0.894, 192.0, 0.0, 0.0, 0.0, 0.0, 0.0, 0.0, 0.0, 0.0, 0.0, 1.677706275089868E9, 0.0, 2023-03-01 13:31:15.089
76.0, 28739.11306132234, 15202.874267443929, 0.0, -187500.02235174447, 0.0, 0.0, 0.0, -187500.02235174447, -0.304, 0.332, -0.894, 192.0, 0.0, 0.0, 0.0, 0.0, 0.0, 0.0, 0.0, 0.0, 0.0, 1.677706275096483E9, 0.0, 2023-03-01 13:31:15.096
77.0, 28780.240271120107, 15262.68753560633, 0.0, -187500.02235174447, 0.0, 0.0, 0.0, -187500.02235174447, -0.304, 0.332, -0.894, 192.0, 0.0, 0.0, 0.0, 0.0, 0.0, 0.0, 0.0, 0.0, 0.0, 1.677706275096536E9, 0.0, 2023-03-01 13:31:15.096
78.0, 28773.13241638332, 15246.102541220493, 0.0, -187500.02235174447, 0.0, 0.0, 0.0, -187500.02235174447, -0.304, 0.332, -0.894, 192.0, 0.0, 0.0, 0.0, 0.0, 0.0, 0.0, 0.0, 0.0, 0.0, 1.677706275104503E9, 0.0, 2023-03-01 13:31:15.104
79.0, 28738.844840388876, 15188.926778903817, 0.0, -187500.02235174447, 0.0, 0.0, 0.0, -187500.02235174447, -0.306, 0.33, -0.89, 192.0, 246.0, 112.0, 10.0, 80.0, 228.0, 48.0, 0.0, 0.0, 0.0, 1.677706275104521E9, 0.0, 2023-03-01 13:31:15.104
80.0, 28750.780671928012, 15201.53316277661, 0.0, -187500.02235174447, 0.0, 0.0, 0.0, -187500.02235174447, -0.306, 0.33, -0.89, 192.0, 0.0, 0.0, 0.0, 0.0, 0.0, 0.0, 0.0, 0.0, 0.0, 1.677706275112594E9, 0.0, 2023-03-01 13:31:15.112
81.0, 28812.829114535944, 15282.02179456017, 0.0, -187500.02235174447, 0.0, 0.0, 0.0, -187500.02235174447, -0.306, 0.33, -0.89, 192.0, 0.0, 0.0, 0.0, 0.0, 0.0, 0.0, 0.0, 0.0, 0.0, 1.677706275112624E9, 0.0, 2023-03-01 13:31:15.112
82.0, 28802.569663830956, 15273.706945622796, 0.0, -187500.02235174447, 0.0, 0.0, 0.0, -187500.02235174447, -0.306, 0.33, -0.89, 192.0, 0.0, 0.0, 0.0, 0.0, 0.0, 0.0, 0.0, 0.0, 0.0, 1.677706275119726E9, 0.0, 2023-03-01 13:31:15.119
83.0, 28744.052796846965, 15199.409747053356, 0.0, -187500.02235174447, 0.0, 0.0, 0.0, -187500.02235174447, -0.306, 0.33, -0.89, 192.0, 0.0, 0.0, 0.0, 0.0, 0.0, 0.0, 0.0, 0.0, 0.0, 1.677706275119739E9, 0.0, 2023-03-01 13:31:15.119
84.0, 28739.805965400454, 15197.19692435228, 0.0, -187500.02235174447, 0.0, 0.0, 0.0, -187500.02235174447, -0.306, 0.33, -0.89, 192.0, 0.0, 0.0, 0.0, 0.0, 0.0, 0.0, 0.0, 0.0, 0.0, 1.677706275127156E9, 0.0, 2023-03-01 13:31:15.127
85.0, 28806.727088299645, 15272.701117122308, 0.0, -187500.02235174447, 0.0, 0.0, 0.0, -187500.02235174447, -0.306, 0.33, -0.89, 192.0, 0.0, 0.0, 0.0, 0.0, 0.0, 0.0, 0.0, 0.0, 0.0, 1.677706275127165E9, 0.0, 2023-03-01 13:31:15.127
86.0, 28818.171181460762, 15285.151038783913, 0.0, -187500.02235174447, 0.0, 0.0, 0.0, -187500.02235174447, -0.306, 0.33, -0.89, 192.0, 0.0, 0.0, 0.0, 0.0, 0.0, 0.0, 0.0, 0.0, 0.0, 1.677706275134202E9, 0.0, 2023-03-01 13:31:15.134
87.0, 28762.202413344672, 15217.53701180661, 0.0, -187500.02235174447, 0.0, 0.0, 0.0, -187500.02235174447, -0.306, 0.33, -0.89, 192.0, 0.0, 0.0, 0.0, 0.0, 0.0, 0.0, 0.0, 0.0, 0.0, 1.677706275142212E9, 0.0, 2023-03-01 13:31:15.142
88.0, 28736.25203803206, 15195.453488284766, 0.0, -187500.02235174447, 0.0, 0.0, 0.0, -187500.02235174447, -0.306, 0.33, -0.89, 192.0, 0.0, 0.0, 0.0, 0.0, 0.0, 0.0, 0.0, 0.0, 0.0, 1.67770627514223E9, 0.0, 2023-03-01 13:31:15.142
89.0, 28787.25871887907, 15257.434875659334, 0.0, -187500.02235174447, 0.0, 0.0, 0.0, -187500.02235174447, -0.3, 0.336, -0.89, 192.0, 246.0, 160.0, 10.0, 128.0, 228.0, 48.0, 0.0, 0.0, 0.0, 1.677706275149485E9, 0.0, 2023-03-01 13:31:15.149
90.0, 28819.31112042798, 15282.424125960366, 0.0, -187500.02235174447, 0.0, 0.0, 0.0, -187500.02235174447, -0.3, 0.336, -0.89, 192.0, 0.0, 0.0, 0.0, 0.0, 0.0, 0.0, 0.0, 0.0, 0.0, 1.677706275149502E9, 0.0, 2023-03-01 13:31:15.149
91.0, 28781.06728566495, 15226.500061333189, 0.0, -187500.02235174447, 0.0, 0.0, 0.0, -187500.02235174447, -0.3, 0.336, -0.89, 192.0, 0.0, 0.0, 0.0, 0.0, 0.0, 0.0, 0.0, 0.0, 0.0, 1.677706275156819E9, 0.0, 2023-03-01 13:31:15.156
92.0, 28743.203430557664, 15188.747964948174, 0.0, -187500.02235174447, 0.0, 0.0, 0.0, -187500.02235174447, -0.3, 0.336, -0.89, 192.0, 0.0, 0.0, 0.0, 0.0, 0.0, 0.0, 0.0, 0.0, 0.0, 1.67770627515683E9, 0.0, 2023-03-01 13:31:15.156
93.0, 28772.93125068322, 15236.759512038174, 0.0, -187500.02235174447, 0.0, 0.0, 0.0, -187500.02235174447, -0.3, 0.336, -0.89, 192.0, 0.0, 0.0, 0.0, 0.0, 0.0, 0.0, 0.0, 0.0, 0.0, 1.677706275164803E9, 0.0, 2023-03-01 13:31:15.164
94.0, 28805.31892839896, 15278.579625914053, 0.0, -187500.02235174447, 0.0, 0.0, 0.0, -187500.02235174447, -0.3, 0.336, -0.89, 192.0, 0.0, 0.0, 0.0, 0.0, 0.0, 0.0, 0.0, 0.0, 0.0, 1.677706275164848E9, 0.0, 2023-03-01 13:31:15.164
95.0, 28774.182948372716, 15233.58556432552, 0.0, -187500.02235174447, 0.0, 0.0, 0.0, -187500.02235174447, -0.3, 0.336, -0.89, 192.0, 0.0, 0.0, 0.0, 0.0, 0.0, 0.0, 0.0, 0.0, 0.0, 1.677706275172852E9, 0.0, 2023-03-01 13:31:15.172
96.0, 28730.507639707048, 15178.24264505418, 0.0, -187500.02235174447, 0.0, 0.0, 0.0, -187500.02235174447, -0.3, 0.336, -0.89, 192.0, 0.0, 0.0, 0.0, 0.0, 0.0, 0.0, 0.0, 0.0, 0.0, 1.677706275172862E9, 0.0, 2023-03-01 13:31:15.172
97.0, 28757.84382317589, 15219.861593229962, 0.0, -187500.02235174447, 0.0, 0.0, 0.0, -187500.02235174447, -0.3, 0.336, -0.89, 192.0, 0.0, 0.0, 0.0, 0.0, 0.0, 0.0, 0.0, 0.0, 0.0, 1.67770627517948E9, 0.0, 2023-03-01 13:31:15.179
98.0, 28798.859274251376, 15283.653471905409, 0.0, -187500.02235174447, 0.0, 0.0, 0.0, -187500.02235174447, -0.3, 0.336, -0.89, 192.0, 0.0, 0.0, 0.0, 0.0, 0.0, 0.0, 0.0, 0.0, 0.0, 1.677706275179501E9, 0.0, 2023-03-01 13:31:15.179
99.0, 28787.593995045903, 15250.796407556107, 0.0, -187500.02235174447, 0.0, 0.0, 0.0, -187500.02235174447, -0.298, 0.334, -0.888, 192.0, 246.0, 176.0, 10.0, 112.0, 228.0, 64.0, 0.0, 0.0, 0.0, 1.677706275187366E9, 0.0, 2023-03-01 13:31:15.187
100.0, 28745.997398614574, 15182.95886313425, 0.0, -187500.02235174447, 0.0, 0.0, 0.0, -187500.02235174447, -0.298, 0.334, -0.888, 192.0, 0.0, 0.0, 0.0, 0.0, 0.0, 0.0, 0.0, 0.0, 0.0, 1.677706275187382E9, 0.0, 2023-03-01 13:31:15.187
101.0, 28764.392884301295, 15198.87330518643, 0.0, -187500.02235174447, 0.0, 0.0, 0.0, -187500.02235174447, -0.298, 0.334, -0.888, 192.0, 0.0, 0.0, 0.0, 0.0, 0.0, 0.0, 0.0, 0.0, 0.0, 1.677706275194439E9, 0.0, 2023-03-01 13:31:15.194
102.0, 28811.68917556872, 15267.694326364319, 0.0, -187500.02235174447, 0.0, 0.0, 0.0, -187500.02235174447, -0.298, 0.334, -0.888, 192.0, 0.0, 0.0, 0.0, 0.0, 0.0, 0.0, 0.0, 0.0, 0.0, 1.677706275194464E9, 0.0, 2023-03-01 13:31:15.194
103.0, 28789.404486346783, 15255.669087847364, 0.0, -187500.02235174447, 0.0, 0.0, 0.0, -187500.02235174447, -0.298, 0.334, -0.888, 192.0, 0.0, 0.0, 0.0, 0.0, 0.0, 0.0, 0.0, 0.0, 0.0, 1.677706275202501E9, 0.0, 2023-03-01 13:31:15.202
104.0, 28741.415291001238, 15192.838334183496, 0.0, -187500.02235174447, 0.0, 0.0, 0.0, -187500.02235174447, -0.298, 0.334, -0.888, 192.0, 0.0, 0.0, 0.0, 0.0, 0.0, 0.0, 0.0, 0.0, 0.0, 1.677706275209108E9, 0.0, 2023-03-01 13:31:15.209
105.0, 28750.44539576118, 15202.96367442175, 0.0, -187500.02235174447, 0.0, 0.0, 0.0, -187500.02235174447, -0.298, 0.334, -0.888, 192.0, 0.0, 0.0, 0.0, 0.0, 0.0, 0.0, 0.0, 0.0, 0.0, 1.677706275209117E9, 0.0, 2023-03-01 13:31:15.209
106.0, 28811.666823824267, 15270.421239187866, 0.0, -187500.02235174447, 0.0, 0.0, 0.0, -187500.02235174447, -0.298, 0.334, -0.888, 192.0, 0.0, 0.0, 0.0, 0.0, 0.0, 0.0, 0.0, 0.0, 0.0, 1.677706275220124E9, 0.0, 2023-03-01 13:31:15.220
107.0, 28806.481219110636, 15262.329907695044, 0.0, -187500.02235174447, 0.0, 0.0, 0.0, -187500.02235174447, -0.298, 0.334, -0.888, 192.0, 0.0, 0.0, 0.0, 0.0, 0.0, 0.0, 0.0, 0.0, 0.0, 1.677706275220145E9, 0.0, 2023-03-01 13:31:15.220
108.0, 28750.82537541692, 15202.784860466107, 0.0, -187500.02235174447, 0.0, 0.0, 0.0, -187500.02235174447, -0.298, 0.334, -0.888, 192.0, 0.0, 0.0, 0.0, 0.0, 0.0, 0.0, 0.0, 0.0, 0.0, 1.677706275226214E9, 0.0, 2023-03-01 13:31:15.226
109.0, 28740.051834589463, 15194.894694673383, 0.0, -187500.02235174447, 0.0, 0.0, 0.0, -187500.02235174447, -0.302, 0.334, -0.884, 192.0, 246.0, 144.0, 10.0, 112.0, 228.0, 96.0, 0.0, 0.0, 0.0, 1.677706275226229E9, 0.0, 2023-03-01 13:31:15.226
110.0, 28787.12460841234, 15255.087942491526, 0.0, -187500.02235174447, 0.0, 0.0, 0.0, -187500.02235174447, -0.302, 0.334, -0.884, 192.0, 0.0, 0.0, 0.0, 0.0, 0.0, 0.0, 0.0, 0.0, 0.0, 1.677706275232625E9, 0.0, 2023-03-01 13:31:15.232
111.0, 28799.574530073947, 15262.128741994948, 0.0, -187500.02235174447, 0.0, 0.0, 0.0, -187500.02235174447, -0.302, 0.334, -0.884, 192.0, 0.0, 0.0, 0.0, 0.0, 0.0, 0.0, 0.0, 0.0, 0.0, 1.677706275232641E9, 0.0, 2023-03-01 13:31:15.232
112.0, 28760.72719821062, 15198.828601697518, 0.0, -187500.02235174447, 0.0, 0.0, 0.0, -187500.02235174447, -0.302, 0.334, -0.884, 192.0, 0.0, 0.0, 0.0, 0.0, 0.0, 0.0, 0.0, 0.0, 0.0, 1.677706275239677E9, 0.0, 2023-03-01 13:31:15.239
113.0, 28734.86622987583, 15171.894749628873, 0.0, -187500.02235174447, 0.0, 0.0, 0.0, -187500.02235174447, -0.302, 0.334, -0.884, 192.0, 0.0, 0.0, 0.0, 0.0, 0.0, 0.0, 0.0, 0.0, 0.0, 1.677706275239688E9, 0.0, 2023-03-01 13:31:15.239
114.0, 28770.114930881853, 15229.986933468215, 0.0, -187500.02235174447, 0.0, 0.0, 0.0, -187500.02235174447, -0.302, 0.334, -0.884, 192.0, 0.0, 0.0, 0.0, 0.0, 0.0, 0.0, 0.0, 0.0, 0.0, 1.677706275247705E9, 0.0, 2023-03-01 13:31:15.247
115.0, 28795.50651258308, 15259.670050104864, 0.0, -187500.02235174447, 0.0, 0.0, 0.0, -187500.02235174447, -0.302, 0.334, -0.884, 192.0, 0.0, 0.0, 0.0, 0.0, 0.0, 0.0, 0.0, 0.0, 0.0, 1.677706275247718E9, 0.0, 2023-03-01 13:31:15.247
116.0, 28760.235459832606, 15206.96463667925, 0.0, -187500.02235174447, 0.0, 0.0, 0.0, -187500.02235174447, -0.302, 0.334, -0.884, 192.0, 0.0, 0.0, 0.0, 0.0, 0.0, 0.0, 0.0, 0.0, 0.0, 1.677706275255634E9, 0.0, 2023-03-01 13:31:15.255
117.0, 28728.764203639534, 15164.362211747433, 0.0, -187500.02235174447, 0.0, 0.0, 0.0, -187500.02235174447, -0.302, 0.334, -0.884, 192.0, 0.0, 0.0, 0.0, 0.0, 0.0, 0.0, 0.0, 0.0, 0.0, 1.677706275255643E9, 0.0, 2023-03-01 13:31:15.255
118.0, 28757.955581898164, 15218.609895540465, 0.0, -187500.02235174447, 0.0, 0.0, 0.0, -187500.02235174447, -0.302, 0.334, -0.884, 192.0, 0.0, 0.0, 0.0, 0.0, 0.0, 0.0, 0.0, 0.0, 0.0, 1.677706275261773E9, 0.0, 2023-03-01 13:31:15.261
119.0, 28786.811683989967, 15255.870253547462, 0.0, -187500.02235174447, 0.0, 0.0, 0.0, -187500.02235174447, -0.308, 0.332, -0.89, 192.0, 246.0, 96.0, 10.0, 96.0, 228.0, 48.0, 0.0, 0.0, 0.0, 1.677706275269291E9, 0.0, 2023-03-01 13:31:15.269
120.0, 28758.179099342717, 15209.311569847057, 0.0, -187500.02235174447, 0.0, 0.0, 0.0, -187500.02235174447, -0.308, 0.332, -0.89, 192.0, 0.0, 0.0, 0.0, 0.0, 0.0, 0.0, 0.0, 0.0, 0.0, 1.677706275269312E9, 0.0, 2023-03-01 13:31:15.269
121.0, 28717.007186056042, 15159.914214600829, 0.0, -187500.02235174447, 0.0, 0.0, 0.0, -187500.02235174447, -0.308, 0.332, -0.89, 192.0, 0.0, 0.0, 0.0, 0.0, 0.0, 0.0, 0.0, 0.0, 0.0, 1.677706275277355E9, 0.0, 2023-03-01 13:31:15.277
122.0, 28747.249096304073, 15200.4379272983, 0.0, -187500.02235174447, 0.0, 0.0, 0.0, -187500.02235174447, -0.308, 0.332, -0.89, 192.0, 0.0, 0.0, 0.0, 0.0, 0.0, 0.0, 0.0, 0.0, 0.0, 1.677706275277371E9, 0.0, 2023-03-01 13:31:15.277
123.0, 28801.47442835265, 15260.430009416345, 0.0, -187500.02235174447, 0.0, 0.0, 0.0, -187500.02235174447, -0.308, 0.332, -0.89, 192.0, 0.0, 0.0, 0.0, 0.0, 0.0, 0.0, 0.0, 0.0, 0.0, 1.677706275285307E9, 0.0, 2023-03-01 13:31:15.285
124.0, 28786.45405607868, 15235.507814348677, 0.0, -187500.02235174447, 0.0, 0.0, 0.0, -187500.02235174447, -0.308, 0.332, -0.89, 192.0, 0.0, 0.0, 0.0, 0.0, 0.0, 0.0, 0.0, 0.0, 0.0, 1.677706275285339E9, 0.0, 2023-03-01 13:31:15.285
125.0, 28748.88077364931, 15177.058002598049, 0.0, -187500.02235174447, 0.0, 0.0, 0.0, -187500.02235174447, -0.308, 0.332, -0.89, 192.0, 0.0, 0.0, 0.0, 0.0, 0.0, 0.0, 0.0, 0.0, 0.0, 1.677706275291921E9, 0.0, 2023-03-01 13:31:15.291
126.0, 28755.295724307984, 15197.95688366376, 0.0, -187500.02235174447, 0.0, 0.0, 0.0, -187500.02235174447, -0.308, 0.332, -0.89, 192.0, 0.0, 0.0, 0.0, 0.0, 0.0, 0.0, 0.0, 0.0, 0.0, 1.677706275291969E9, 0.0, 2023-03-01 13:31:15.291
127.0, 28809.811629034477, 15275.584492157042, 0.0, -187500.02235174447, 0.0, 0.0, 0.0, -187500.02235174447, -0.308, 0.332, -0.89, 192.0, 0.0, 0.0, 0.0, 0.0, 0.0, 0.0, 0.0, 0.0, 0.0, 1.677706275299952E9, 0.0, 2023-03-01 13:31:15.299
128.0, 28804.782486532033, 15263.916881551371, 0.0, -187500.02235174447, 0.0, 0.0, 0.0, -187500.02235174447, -0.308, 0.332, -0.89, 192.0, 0.0, 0.0, 0.0, 0.0, 0.0, 0.0, 0.0, 0.0, 0.0, 1.67770627529997E9, 0.0, 2023-03-01 13:31:15.299
129.0, 28735.20150604266, 15178.555569476554, 0.0, -187500.02235174447, 0.0, 0.0, 0.0, -187500.02235174447, -0.304, 0.334, -0.894, 192.0, 246.0, 128.0, 10.0, 112.0, 228.0, 16.0, 0.0, 0.0, 0.0, 1.677706275308017E9, 0.0, 2023-03-01 13:31:15.308
130.0, 28716.001357555553, 15174.465200241233, 0.0, -187500.02235174447, 0.0, 0.0, 0.0, -187500.02235174447, -0.304, 0.334, -0.894, 192.0, 0.0, 0.0, 0.0, 0.0, 0.0, 0.0, 0.0, 0.0, 0.0, 1.677706275308042E9, 0.0, 2023-03-01 13:31:15.308
131.0, 28770.69607623769, 15247.756570310185, 0.0, -187500.02235174447, 0.0, 0.0, 0.0, -187500.02235174447, -0.304, 0.334, -0.894, 192.0, 0.0, 0.0, 0.0, 0.0, 0.0, 0.0, 0.0, 0.0, 0.0, 1.677706275314602E9, 0.0, 2023-03-01 13:31:15.314
132.0, 28789.73976251361, 15245.320230164556, 0.0, -187500.02235174447, 0.0, 0.0, 0.0, -187500.02235174447, -0.304, 0.334, -0.894, 192.0, 0.0, 0.0, 0.0, 0.0, 0.0, 0.0, 0.0, 0.0, 0.0, 1.677706275314621E9, 0.0, 2023-03-01 13:31:15.314
133.0, 28737.615494443835, 15178.041479354082, 0.0, -187500.02235174447, 0.0, 0.0, 0.0, -187500.02235174447, -0.304, 0.334, -0.894, 192.0, 0.0, 0.0, 0.0, 0.0, 0.0, 0.0, 0.0, 0.0, 0.0, 1.677706275321591E9, 0.0, 2023-03-01 13:31:15.321
134.0, 28725.63495941579, 15162.708182657741, 0.0, -187500.02235174447, 0.0, 0.0, 0.0, -187500.02235174447, -0.304, 0.334, -0.894, 192.0, 0.0, 0.0, 0.0, 0.0, 0.0, 0.0, 0.0, 0.0, 0.0, 1.677706275329609E9, 0.0, 2023-03-01 13:31:15.329
135.0, 28782.475445565637, 15237.720637049752, 0.0, -187500.02235174447, 0.0, 0.0, 0.0, -187500.02235174447, -0.304, 0.334, -0.894, 192.0, 0.0, 0.0, 0.0, 0.0, 0.0, 0.0, 0.0, 0.0, 0.0, 1.677706275329621E9, 0.0, 2023-03-01 13:31:15.329
136.0, 28796.110009683372, 15255.132645980437, 0.0, -187500.02235174447, 0.0, 0.0, 0.0, -187500.02235174447, -0.304, 0.334, -0.894, 192.0, 0.0, 0.0, 0.0, 0.0, 0.0, 0.0, 0.0, 0.0, 0.0, 1.677706275337654E9, 0.0, 2023-03-01 13:31:15.337
137.0, 28752.613514973345, 15190.871380671428, 0.0, -187500.02235174447, 0.0, 0.0, 0.0, -187500.02235174447, -0.304, 0.334, -0.894, 192.0, 0.0, 0.0, 0.0, 0.0, 0.0, 0.0, 0.0, 0.0, 0.0, 1.677706275337662E9, 0.0, 2023-03-01 13:31:15.337
138.0, 28717.007186056042, 15157.701391899753, 0.0, -187500.02235174447, 0.0, 0.0, 0.0, -187500.02235174447, -0.304, 0.334, -0.894, 192.0, 0.0, 0.0, 0.0, 0.0, 0.0, 0.0, 0.0, 0.0, 0.0, 1.677706275344826E9, 0.0, 2023-03-01 13:31:15.344
139.0, 28756.994456886587, 15215.927686205827, 0.0, -187500.02235174447, 0.0, 0.0, 0.0, -187500.02235174447, -0.302, 0.334, -0.894, 192.0, 246.0, 144.0, 10.0, 112.0, 228.0, 16.0, 0.0, 0.0, 0.0, 1.677706275344847E9, 0.0, 2023-03-01 13:31:15.344
140.0, 28798.434591106725, 15259.960622782783, 0.0, -187500.02235174447, 0.0, 0.0, 0.0, -187500.02235174447, -0.302, 0.334, -0.894, 192.0, 0.0, 0.0, 0.0, 0.0, 0.0, 0.0, 0.0, 0.0, 0.0, 1.677706275352231E9, 0.0, 2023-03-01 13:31:15.352
141.0, 28764.6387534903, 15218.095805417992, 0.0, -187500.02235174447, 0.0, 0.0, 0.0, -187500.02235174447, -0.302, 0.334, -0.894, 192.0, 0.0, 0.0, 0.0, 0.0, 0.0, 0.0, 0.0, 0.0, 0.0, 1.677706275352246E9, 0.0, 2023-03-01 13:31:15.352
142.0, 28724.11504079283, 15174.91223513034, 0.0, -187500.02235174447, 0.0, 0.0, 0.0, -187500.02235174447, -0.302, 0.334, -0.894, 192.0, 0.0, 0.0, 0.0, 0.0, 0.0, 0.0, 0.0, 0.0, 0.0, 1.677706275360343E9, 0.0, 2023-03-01 13:31:15.360
143.0, 28763.20824184516, 15209.266866358146, 0.0, -187500.02235174447, 0.0, 0.0, 0.0, -187500.02235174447, -0.302, 0.334, -0.894, 192.0, 0.0, 0.0, 0.0, 0.0, 0.0, 0.0, 0.0, 0.0, 0.0, 1.677706275360361E9, 0.0, 2023-03-01 13:31:15.360
144.0, 28806.861198766375, 15255.4008669139, 0.0, -187500.02235174447, 0.0, 0.0, 0.0, -187500.02235174447, -0.302, 0.334, -0.894, 192.0, 0.0, 0.0, 0.0, 0.0, 0.0, 0.0, 0.0, 0.0, 0.0, 1.677706275367412E9, 0.0, 2023-03-01 13:31:15.367
145.0, 28787.057553178973, 15219.973351952238, 0.0, -187500.02235174447, 0.0, 0.0, 0.0, -187500.02235174447, -0.302, 0.334, -0.894, 192.0, 0.0, 0.0, 0.0, 0.0, 0.0, 0.0, 0.0, 0.0, 0.0, 1.677706275367435E9, 0.0, 2023-03-01 13:31:15.367
146.0, 28734.575657197915, 15168.117304815925, 0.0, -187500.02235174447, 0.0, 0.0, 0.0, -187500.02235174447, -0.302, 0.334, -0.894, 192.0, 0.0, 0.0, 0.0, 0.0, 0.0, 0.0, 0.0, 0.0, 0.0, 1.677706275374845E9, 0.0, 2023-03-01 13:31:15.374
147.0, 28740.297703778473, 15195.408784795856, 0.0, -187500.02235174447, 0.0, 0.0, 0.0, -187500.02235174447, -0.302, 0.334, -0.894, 192.0, 0.0, 0.0, 0.0, 0.0, 0.0, 0.0, 0.0, 0.0, 0.0, 1.677706275374857E9, 0.0, 2023-03-01 13:31:15.374
148.0, 28797.249948650595, 15258.328945437544, 0.0, -187500.02235174447, 0.0, 0.0, 0.0, -187500.02235174447, -0.302, 0.334, -0.894, 192.0, 0.0, 0.0, 0.0, 0.0, 0.0, 0.0, 0.0, 0.0, 0.0, 1.677706275381878E9, 0.0, 2023-03-01 13:31:15.381
149.0, 28791.282032881027, 15240.201680684291, 0.0, -187500.02235174447, 0.0, 0.0, 0.0, -187500.02235174447, -0.302, 0.334, -0.894, 192.0, 0.0, 0.0, 0.0, 0.0, 0.0, 0.0, 0.0, 0.0, 0.0, 1.677706275389839E9, 0.0, 2023-03-01 13:31:15.389
150.0, 28746.77970967051, 15173.973461863216, 0.0, -187500.02235174447, 0.0, 0.0, 0.0, -187500.02235174447, -0.302, 0.33, -0.892, 192.0, 246.0, 144.0, 10.0, 80.0, 228.0, 32.0, 0.0, 0.0, 0.0, 1.677706275389859E9, 0.0, 2023-03-01 13:31:15.389
151.0, 28761.64361973329, 15194.67117722883, 0.0, -187500.02235174447, 0.0, 0.0, 0.0, -187500.02235174447, -0.302, 0.33, -0.892, 192.0, 0.0, 0.0, 0.0, 0.0, 0.0, 0.0, 0.0, 0.0, 0.0, 1.677706275397121E9, 0.0, 2023-03-01 13:31:15.397
152.0, 28797.004079461585, 15261.413486172378, 0.0, -187500.02235174447, 0.0, 0.0, 0.0, -187500.02235174447, -0.302, 0.33, -0.892, 192.0, 0.0, 0.0, 0.0, 0.0, 0.0, 0.0, 0.0, 0.0, 0.0, 1.677706275397139E9, 0.0, 2023-03-01 13:31:15.397
153.0, 28792.46667533716, 15254.26092794668, 0.0, -187500.02235174447, 0.0, 0.0, 0.0, -187500.02235174447, -0.302, 0.33, -0.892, 192.0, 0.0, 0.0, 0.0, 0.0, 0.0, 0.0, 0.0, 0.0, 0.0, 1.67770627540455E9, 0.0, 2023-03-01 13:31:15.404
154.0, 28741.236477045593, 15173.213502551736, 0.0, -187500.02235174447, 0.0, 0.0, 0.0, -187500.02235174447, -0.302, 0.33, -0.892, 192.0, 0.0, 0.0, 0.0, 0.0, 0.0, 0.0, 0.0, 0.0, 0.0, 1.677706275404567E9, 0.0, 2023-03-01 13:31:15.404
155.0, 28734.195677542175, 15165.345688503468, 0.0, -187500.02235174447, 0.0, 0.0, 0.0, -187500.02235174447, -0.302, 0.33, -0.892, 192.0, 0.0, 0.0, 0.0, 0.0, 0.0, 0.0, 0.0, 0.0, 0.0, 1.677706275412586E9, 0.0, 2023-03-01 13:31:15.412
156.0, 28778.318021096948, 15236.088959704515, 0.0, -187500.02235174447, 0.0, 0.0, 0.0, -187500.02235174447, -0.302, 0.33, -0.892, 192.0, 0.0, 0.0, 0.0, 0.0, 0.0, 0.0, 0.0, 0.0, 0.0, 1.677706275412597E9, 0.0, 2023-03-01 13:31:15.412
157.0, 28787.146960156795, 15245.677858075842, 0.0, -187500.02235174447, 0.0, 0.0, 0.0, -187500.02235174447, -0.302, 0.33, -0.892, 192.0, 0.0, 0.0, 0.0, 0.0, 0.0, 0.0, 0.0, 0.0, 0.0, 1.677706275420514E9, 0.0, 2023-03-01 13:31:15.420
158.0, 28746.444433503682, 15194.134735361904, 0.0, -187500.02235174447, 0.0, 0.0, 0.0, -187500.02235174447, -0.302, 0.33, -0.892, 192.0, 0.0, 0.0, 0.0, 0.0, 0.0, 0.0, 0.0, 0.0, 0.0, 1.677706275420523E9, 0.0, 2023-03-01 13:31:15.420
159.0, 28727.601912927857, 15180.589578221987, 0.0, -187500.02235174447, 0.0, 0.0, 0.0, -187500.02235174447, -0.302, 0.33, -0.892, 192.0, 0.0, 0.0, 0.0, 0.0, 0.0, 0.0, 0.0, 0.0, 0.0, 1.677706275427159E9, 0.0, 2023-03-01 13:31:15.427
160.0, 28778.318021096948, 15243.06270397457, 0.0, -187500.02235174447, 0.0, 0.0, 0.0, -187500.02235174447, -0.3, 0.33, -0.904, 192.0, 246.0, 160.0, 10.0, 80.0, 227.0, 192.0, 0.0, 0.0, 0.0, 1.677706275427177E9, 0.0, 2023-03-01 13:31:15.427
161.0, 28811.040974979518, 15273.25991073369, 0.0, -187500.02235174447, 0.0, 0.0, 0.0, -187500.02235174447, -0.3, 0.33, -0.904, 192.0, 0.0, 0.0, 0.0, 0.0, 0.0, 0.0, 0.0, 0.0, 0.0, 1.677706275435181E9, 0.0, 2023-03-01 13:31:15.435
162.0, 28773.713561739158, 15226.880040988928, 0.0, -187500.02235174447, 0.0, 0.0, 0.0, -187500.02235174447, -0.3, 0.33, -0.904, 192.0, 0.0, 0.0, 0.0, 0.0, 0.0, 0.0, 0.0, 0.0, 0.0, 1.6777062754352E9, 0.0, 2023-03-01 13:31:15.435
163.0, 28742.979913113108, 15198.470973786232, 0.0, -187500.02235174447, 0.0, 0.0, 0.0, -187500.02235174447, -0.3, 0.33, -0.904, 192.0, 0.0, 0.0, 0.0, 0.0, 0.0, 0.0, 0.0, 0.0, 0.0, 1.677706275442225E9, 0.0, 2023-03-01 13:31:15.442
164.0, 28778.921518197243, 15249.947041266805, 0.0, -187500.02235174447, 0.0, 0.0, 0.0, -187500.02235174447, -0.3, 0.33, -0.904, 192.0, 0.0, 0.0, 0.0, 0.0, 0.0, 0.0, 0.0, 0.0, 0.0, 1.677706275442239E9, 0.0, 2023-03-01 13:31:15.442
165.0, 28809.789277290023, 15278.713736380785, 0.0, -187500.02235174447, 0.0, 0.0, 0.0, -187500.02235174447, -0.3, 0.33, -0.904, 192.0, 0.0, 0.0, 0.0, 0.0, 0.0, 0.0, 0.0, 0.0, 0.0, 1.677706275450331E9, 0.0, 2023-03-01 13:31:15.450
166.0, 28776.59693677389, 15228.95875322327, 0.0, -187500.02235174447, 0.0, 0.0, 0.0, -187500.02235174447, -0.3, 0.33, -0.904, 192.0, 0.0, 0.0, 0.0, 0.0, 0.0, 0.0, 0.0, 0.0, 0.0, 1.677706275456762E9, 0.0, 2023-03-01 13:31:15.456
167.0, 28728.786555383987, 15179.874322399417, 0.0, -187500.02235174447, 0.0, 0.0, 0.0, -187500.02235174447, -0.3, 0.33, -0.904, 192.0, 0.0, 0.0, 0.0, 0.0, 0.0, 0.0, 0.0, 0.0, 0.0, 1.677706275456774E9, 0.0, 2023-03-01 13:31:15.456
168.0, 28752.099424850876, 15217.87228797344, 0.0, -187500.02235174447, 0.0, 0.0, 0.0, -187500.02235174447, -0.3, 0.33, -0.904, 192.0, 0.0, 0.0, 0.0, 0.0, 0.0, 0.0, 0.0, 0.0, 0.0, 1.677706275464855E9, 0.0, 2023-03-01 13:31:15.464
169.0, 28793.31604162646, 15264.430971673844, 0.0, -187500.02235174447, 0.0, 0.0, 0.0, -187500.02235174447, -0.3, 0.33, -0.904, 192.0, 0.0, 0.0, 0.0, 0.0, 0.0, 0.0, 0.0, 0.0, 0.0, 1.677706275464864E9, 0.0, 2023-03-01 13:31:15.464
170.0, 28777.446303063192, 15232.95971548077, 0.0, -187500.02235174447, 0.0, 0.0, 0.0, -187500.02235174447, -0.298, 0.336, -0.904, 192.0, 246.0, 176.0, 10.0, 128.0, 227.0, 192.0, 0.0, 0.0, 0.0, 1.677706275472827E9, 0.0, 2023-03-01 13:31:15.472
171.0, 28734.709767664644, 15167.893787371373, 0.0, -187500.02235174447, 0.0, 0.0, 0.0, -187500.02235174447, -0.298, 0.336, -0.904, 192.0, 0.0, 0.0, 0.0, 0.0, 0.0, 0.0, 0.0, 0.0, 0.0, 1.677706275472843E9, 0.0, 2023-03-01 13:31:15.472
172.0, 28752.32294229543, 15199.67796798682, 0.0, -187500.02235174447, 0.0, 0.0, 0.0, -187500.02235174447, -0.298, 0.336, -0.904, 192.0, 0.0, 0.0, 0.0, 0.0, 0.0, 0.0, 0.0, 0.0, 0.0, 1.677706275481408E9, 0.0, 2023-03-01 13:31:15.481
173.0, 28805.073059209953, 15266.196759485812, 0.0, -187500.02235174447, 0.0, 0.0, 0.0, -187500.02235174447, -0.298, 0.336, -0.904, 192.0, 0.0, 0.0, 0.0, 0.0, 0.0, 0.0, 0.0, 0.0, 0.0, 1.677706275481426E9, 0.0, 2023-03-01 13:31:15.481
174.0, 28792.533730570525, 15242.436855129821, 0.0, -187500.02235174447, 0.0, 0.0, 0.0, -187500.02235174447, -0.298, 0.336, -0.904, 192.0, 0.0, 0.0, 0.0, 0.0, 0.0, 0.0, 0.0, 0.0, 0.0, 1.677706275487597E9, 0.0, 2023-03-01 13:31:15.487
175.0, 28741.303532278962, 15177.281520042601, 0.0, -187500.02235174447, 0.0, 0.0, 0.0, -187500.02235174447, -0.298, 0.336, -0.904, 192.0, 0.0, 0.0, 0.0, 0.0, 0.0, 0.0, 0.0, 0.0, 0.0, 1.677706275487642E9, 0.0, 2023-03-01 13:31:15.487
176.0, 28748.366683526838, 15197.375738307923, 0.0, -187500.02235174447, 0.0, 0.0, 0.0, -187500.02235174447, -0.298, 0.336, -0.904, 192.0, 0.0, 0.0, 0.0, 0.0, 0.0, 0.0, 0.0, 0.0, 0.0, 1.677706275495493E9, 0.0, 2023-03-01 13:31:15.495
177.0, 28791.12557066984, 15265.280337963146, 0.0, -187500.02235174447, 0.0, 0.0, 0.0, -187500.02235174447, -0.298, 0.336, -0.904, 192.0, 0.0, 0.0, 0.0, 0.0, 0.0, 0.0, 0.0, 0.0, 0.0, 1.677706275495504E9, 0.0, 2023-03-01 13:31:15.495
178.0, 28782.69896301019, 15251.712829078775, 0.0, -187500.02235174447, 0.0, 0.0, 0.0, -187500.02235174447, -0.298, 0.336, -0.904, 192.0, 0.0, 0.0, 0.0, 0.0, 0.0, 0.0, 0.0, 0.0, 0.0, 1.677706275503442E9, 0.0, 2023-03-01 13:31:15.503
179.0, 28737.146107810273, 15191.452526027266, 0.0, -187500.02235174447, 0.0, 0.0, 0.0, -187500.02235174447, -0.298, 0.336, -0.904, 192.0, 0.0, 0.0, 0.0, 0.0, 0.0, 0.0, 0.0, 0.0, 0.0, 1.677706275503455E9, 0.0, 2023-03-01 13:31:15.503
180.0, 28728.786555383987, 15191.273712071625, 0.0, -187500.02235174447, 0.0, 0.0, 0.0, -187500.02235174447, -0.306, 0.336, -0.9, 192.0, 246.0, 112.0, 10.0, 128.0, 227.0, 224.0, 0.0, 0.0, 0.0, 1.677706275509659E9, 0.0, 2023-03-01 13:31:15.509
181.0, 28786.141131656306, 15256.697268092308, 0.0, -187500.02235174447, 0.0, 0.0, 0.0, -187500.02235174447, -0.306, 0.336, -0.9, 192.0, 0.0, 0.0, 0.0, 0.0, 0.0, 0.0, 0.0, 0.0, 0.0, 1.677706275517011E9, 0.0, 2023-03-01 13:31:15.517
182.0, 28804.536617343023, 15267.671974619863, 0.0, -187500.02235174447, 0.0, 0.0, 0.0, -187500.02235174447, -0.306, 0.336, -0.9, 192.0, 0.0, 0.0, 0.0, 0.0, 0.0, 0.0, 0.0, 0.0, 0.0, 1.677706275517033E9, 0.0, 2023-03-01 13:31:15.517
183.0, 28761.688323222203, 15210.227991369724, 0.0, -187500.02235174447, 0.0, 0.0, 0.0, -187500.02235174447, -0.306, 0.336, -0.9, 192.0, 0.0, 0.0, 0.0, 0.0, 0.0, 0.0, 0.0, 0.0, 0.0, 1.677706275525105E9, 0.0, 2023-03-01 13:31:15.525
184.0, 28735.40267174276, 15183.540008490088, 0.0, -187500.02235174447, 0.0, 0.0, 0.0, -187500.02235174447, -0.306, 0.336, -0.9, 192.0, 0.0, 0.0, 0.0, 0.0, 0.0, 0.0, 0.0, 0.0, 0.0, 1.677706275525126E9, 0.0, 2023-03-01 13:31:15.525
185.0, 28782.430742076725, 15242.5486138521, 0.0, -187500.02235174447, 0.0, 0.0, 0.0, -187500.02235174447, -0.306, 0.336, -0.9, 192.0, 0.0, 0.0, 0.0, 0.0, 0.0, 0.0, 0.0, 0.0, 0.0, 1.6777062755323E9, 0.0, 2023-03-01 13:31:15.532
186.0, 28817.120649471362, 15274.086925278536, 0.0, -187500.02235174447, 0.0, 0.0, 0.0, -187500.02235174447, -0.306, 0.336, -0.9, 192.0, 0.0, 0.0, 0.0, 0.0, 0.0, 0.0, 0.0, 0.0, 0.0, 1.677706275532312E9, 0.0, 2023-03-01 13:31:15.532
187.0, 28763.20824184516, 15213.446642571289, 0.0, -187500.02235174447, 0.0, 0.0, 0.0, -187500.02235174447, -0.306, 0.336, -0.9, 192.0, 0.0, 0.0, 0.0, 0.0, 0.0, 0.0, 0.0, 0.0, 0.0, 1.677706275539657E9, 0.0, 2023-03-01 13:31:15.539
188.0, 28727.914837350232, 15171.00067985066, 0.0, -187500.02235174447, 0.0, 0.0, 0.0, -187500.02235174447, -0.306, 0.336, -0.9, 192.0, 0.0, 0.0, 0.0, 0.0, 0.0, 0.0, 0.0, 0.0, 0.0, 1.677706275539678E9, 0.0, 2023-03-01 13:31:15.539
189.0, 28768.103273880875, 15224.086072932014, 0.0, -187500.02235174447, 0.0, 0.0, 0.0, -187500.02235174447, -0.306, 0.336, -0.9, 192.0, 0.0, 0.0, 0.0, 0.0, 0.0, 0.0, 0.0, 0.0, 0.0, 1.677706275547666E9, 0.0, 2023-03-01 13:31:15.547
190.0, 28806.101239454896, 15260.139436738426, 0.0, -187500.02235174447, 0.0, 0.0, 0.0, -187500.02235174447, -0.3, 0.336, -0.894, 192.0, 246.0, 160.0, 10.0, 128.0, 228.0, 16.0, 0.0, 0.0, 0.0, 1.677706275547679E9, 0.0, 2023-03-01 13:31:15.547
191.0, 28778.139207141307, 15213.737215249208, 0.0, -187500.02235174447, 0.0, 0.0, 0.0, -187500.02235174447, -0.3, 0.336, -0.894, 192.0, 0.0, 0.0, 0.0, 0.0, 0.0, 0.0, 0.0, 0.0, 0.0, 1.677706275555724E9, 0.0, 2023-03-01 13:31:15.555
192.0, 28727.601912927857, 15166.396220492867, 0.0, -187500.02235174447, 0.0, 0.0, 0.0, -187500.02235174447, -0.3, 0.336, -0.894, 192.0, 0.0, 0.0, 0.0, 0.0, 0.0, 0.0, 0.0, 0.0, 0.0, 1.677706275555739E9, 0.0, 2023-03-01 13:31:15.555
193.0, 28751.294762050482, 15206.763470979151, 0.0, -187500.02235174447, 0.0, 0.0, 0.0, -187500.02235174447, -0.3, 0.336, -0.894, 192.0, 0.0, 0.0, 0.0, 0.0, 0.0, 0.0, 0.0, 0.0, 0.0, 1.67770627556237E9, 0.0, 2023-03-01 13:31:15.562
194.0, 28796.17706491674, 15263.648660617908, 0.0, -187500.02235174447, 0.0, 0.0, 0.0, -187500.02235174447, -0.3, 0.336, -0.894, 192.0, 0.0, 0.0, 0.0, 0.0, 0.0, 0.0, 0.0, 0.0, 0.0, 1.677706275562386E9, 0.0, 2023-03-01 13:31:15.562
195.0, 28771.41133206026, 15232.356218380479, 0.0, -187500.02235174447, 0.0, 0.0, 0.0, -187500.02235174447, -0.3, 0.336, -0.894, 192.0, 0.0, 0.0, 0.0, 0.0, 0.0, 0.0, 0.0, 0.0, 0.0, 1.677706275569336E9, 0.0, 2023-03-01 13:31:15.569
196.0, 28718.057718045442, 15172.833522895995, 0.0, -187500.02235174447, 0.0, 0.0, 0.0, -187500.02235174447, -0.3, 0.336, -0.894, 192.0, 0.0, 0.0, 0.0, 0.0, 0.0, 0.0, 0.0, 0.0, 0.0, 1.677706275578001E9, 0.0, 2023-03-01 13:31:15.578
197.0, 28748.433738760203, 15202.494287788188, 0.0, -187500.02235174447, 0.0, 0.0, 0.0, -187500.02235174447, -0.3, 0.336, -0.894, 192.0, 0.0, 0.0, 0.0, 0.0, 0.0, 0.0, 0.0, 0.0, 0.0, 1.677706275578016E9, 0.0, 2023-03-01 13:31:15.578
198.0, 28793.83013174893, 15260.519416394165, 0.0, -187500.02235174447, 0.0, 0.0, 0.0, -187500.02235174447, -0.3, 0.336, -0.894, 192.0, 0.0, 0.0, 0.0, 0.0, 0.0, 0.0, 0.0, 0.0, 0.0, 1.677706275585323E9, 0.0, 2023-03-01 13:31:15.585
199.0, 28769.131454125818, 15233.674971303342, 0.0, -187500.02235174447, 0.0, 0.0, 0.0, -187500.02235174447, -0.3, 0.336, -0.894, 192.0, 0.0, 0.0, 0.0, 0.0, 0.0, 0.0, 0.0, 0.0, 0.0, 1.677706275585335E9, 0.0, 2023-03-01 13:31:15.585
200.0, 28726.484325705092, 15173.012336851638, 0.0, -187500.02235174447, 0.0, 0.0, 0.0, -187500.02235174447, -0.298, 0.326, -0.898, 192.0, 246.0, 176.0, 10.0, 48.0, 227.0, 240.0, 0.0, 0.0, 0.0, 1.677706275591996E9, 0.0, 2023-03-01 13:31:15.591
201.0, 28735.134450809295, 15184.836409668496, 0.0, -187500.02235174447, 0.0, 0.0, 0.0, -187500.02235174447, -0.298, 0.326, -0.898, 192.0, 0.0, 0.0, 0.0, 0.0, 0.0, 0.0, 0.0, 0.0, 0.0, 1.677706275592014E9, 0.0, 2023-03-01 13:31:15.592
202.0, 28795.88649223882, 15243.755608052685, 0.0, -187500.02235174447, 0.0, 0.0, 0.0, -187500.02235174447, -0.298, 0.326, -0.898, 192.0, 0.0, 0.0, 0.0, 0.0, 0.0, 0.0, 0.0, 0.0, 0.0, 1.677706275600037E9, 0.0, 2023-03-01 13:31:15.600
203.0, 28795.104181182884, 15239.329962650534, 0.0, -187500.02235174447, 0.0, 0.0, 0.0, -187500.02235174447, -0.298, 0.326, -0.898, 192.0, 0.0, 0.0, 0.0, 0.0, 0.0, 0.0, 0.0, 0.0, 0.0, 1.677706275600059E9, 0.0, 2023-03-01 13:31:15.600
204.0, 28741.97408461262, 15180.187246821792, 0.0, -187500.02235174447, 0.0, 0.0, 0.0, -187500.02235174447, -0.298, 0.326, -0.898, 192.0, 0.0, 0.0, 0.0, 0.0, 0.0, 0.0, 0.0, 0.0, 0.0, 1.67770627560809E9, 0.0, 2023-03-01 13:31:15.608
205.0, 28729.702976906658, 15177.974424120715, 0.0, -187500.02235174447, 0.0, 0.0, 0.0, -187500.02235174447, -0.298, 0.326, -0.898, 192.0, 0.0, 0.0, 0.0, 0.0, 0.0, 0.0, 0.0, 0.0, 0.0, 1.677706275608106E9, 0.0, 2023-03-01 13:31:15.608
206.0, 28780.374381586837, 15246.594279598508, 0.0, -187500.02235174447, 0.0, 0.0, 0.0, -187500.02235174447, -0.298, 0.326, -0.898, 192.0, 0.0, 0.0, 0.0, 0.0, 0.0, 0.0, 0.0, 0.0, 0.0, 1.677706275616015E9, 0.0, 2023-03-01 13:31:15.616
207.0, 28799.775695774046, 15262.329907695044, 0.0, -187500.02235174447, 0.0, 0.0, 0.0, -187500.02235174447, -0.298, 0.326, -0.898, 192.0, 0.0, 0.0, 0.0, 0.0, 0.0, 0.0, 0.0, 0.0, 0.0, 1.677706275616063E9, 0.0, 2023-03-01 13:31:15.616
208.0, 28751.853555661866, 15201.555514521066, 0.0, -187500.02235174447, 0.0, 0.0, 0.0, -187500.02235174447, -0.298, 0.326, -0.898, 192.0, 0.0, 0.0, 0.0, 0.0, 0.0, 0.0, 0.0, 0.0, 0.0, 1.677706275624015E9, 0.0, 2023-03-01 13:31:15.624
209.0, 28705.07135451691, 15158.014316322127, 0.0, -187500.02235174447, 0.0, 0.0, 0.0, -187500.02235174447, -0.298, 0.326, -0.898, 192.0, 0.0, 0.0, 0.0, 0.0, 0.0, 0.0, 0.0, 0.0, 0.0, 1.677706275624042E9, 0.0, 2023-03-01 13:31:15.624
210.0, 28746.444433503682, 15211.636151270408, 0.0, -187500.02235174447, 0.0, 0.0, 0.0, -187500.02235174447, -0.294, 0.326, -0.89, 192.0, 246.0, 208.0, 10.0, 48.0, 228.0, 48.0, 0.0, 0.0, 0.0, 1.677706275630243E9, 0.0, 2023-03-01 13:31:15.630
211.0, 28789.449189835694, 15257.032544259137, 0.0, -187500.02235174447, 0.0, 0.0, 0.0, -187500.02235174447, -0.294, 0.326, -0.89, 192.0, 0.0, 0.0, 0.0, 0.0, 0.0, 0.0, 0.0, 0.0, 0.0, 1.677706275637659E9, 0.0, 2023-03-01 13:31:15.637
212.0, 28753.37347428483, 15186.401031780368, 0.0, -187500.02235174447, 0.0, 0.0, 0.0, -187500.02235174447, -0.294, 0.326, -0.89, 192.0, 0.0, 0.0, 0.0, 0.0, 0.0, 0.0, 0.0, 0.0, 0.0, 1.677706275637675E9, 0.0, 2023-03-01 13:31:15.637
213.0, 28725.16557278223, 15139.194147490758, 0.0, -187500.02235174447, 0.0, 0.0, 0.0, -187500.02235174447, -0.294, 0.326, -0.89, 192.0, 0.0, 0.0, 0.0, 0.0, 0.0, 0.0, 0.0, 0.0, 0.0, 1.677706275644817E9, 0.0, 2023-03-01 13:31:15.644
214.0, 28770.003172159573, 15193.173610350324, 0.0, -187500.02235174447, 0.0, 0.0, 0.0, -187500.02235174447, -0.294, 0.326, -0.89, 192.0, 0.0, 0.0, 0.0, 0.0, 0.0, 0.0, 0.0, 0.0, 0.0, 1.677706275644832E9, 0.0, 2023-03-01 13:31:15.644
215.0, 28815.66778608177, 15240.15697719538, 0.0, -187500.02235174447, 0.0, 0.0, 0.0, -187500.02235174447, -0.294, 0.326, -0.89, 192.0, 0.0, 0.0, 0.0, 0.0, 0.0, 0.0, 0.0, 0.0, 0.0, 1.677706275652255E9, 0.0, 2023-03-01 13:31:15.652
216.0, 28782.69896301019, 15197.82277319703, 0.0, -187500.02235174447, 0.0, 0.0, 0.0, -187500.02235174447, -0.294, 0.326, -0.89, 192.0, 0.0, 0.0, 0.0, 0.0, 0.0, 0.0, 0.0, 0.0, 0.0, 1.677706275652269E9, 0.0, 2023-03-01 13:31:15.652
217.0, 28743.06932009093, 15145.81026384953, 0.0, -187500.02235174447, 0.0, 0.0, 0.0, -187500.02235174447, -0.294, 0.326, -0.89, 192.0, 0.0, 0.0, 0.0, 0.0, 0.0, 0.0, 0.0, 0.0, 0.0, 1.677706275660347E9, 0.0, 2023-03-01 13:31:15.660
218.0, 28773.579451272424, 15177.81796190953, 0.0, -187500.02235174447, 0.0, 0.0, 0.0, -187500.02235174447, -0.294, 0.326, -0.89, 192.0, 0.0, 0.0, 0.0, 0.0, 0.0, 0.0, 0.0, 0.0, 0.0, 1.67770627566036E9, 0.0, 2023-03-01 13:31:15.660
219.0, 28830.28582695554, 15235.999552726693, 0.0, -187500.02235174447, 0.0, 0.0, 0.0, -187500.02235174447, -0.294, 0.326, -0.89, 192.0, 0.0, 0.0, 0.0, 0.0, 0.0, 0.0, 0.0, 0.0, 0.0, 1.677706275668231E9, 0.0, 2023-03-01 13:31:15.668
220.0, 28810.52688485705, 15209.892715202895, 0.0, -187500.02235174447, 0.0, 0.0, 0.0, -187500.02235174447, -0.3, 0.332, -0.888, 192.0, 246.0, 160.0, 10.0, 96.0, 228.0, 64.0, 0.0, 0.0, 0.0, 1.67770627566824E9, 0.0, 2023-03-01 13:31:15.668
221.0, 28760.235459832606, 15160.249490767657, 0.0, -187500.02235174447, 0.0, 0.0, 0.0, -187500.02235174447, -0.3, 0.332, -0.888, 192.0, 0.0, 0.0, 0.0, 0.0, 0.0, 0.0, 0.0, 0.0, 0.0, 1.677706275674885E9, 0.0, 2023-03-01 13:31:15.674
222.0, 28783.660088021767, 15197.085165630004, 0.0, -187500.02235174447, 0.0, 0.0, 0.0, -187500.02235174447, -0.3, 0.332, -0.888, 192.0, 0.0, 0.0, 0.0, 0.0, 0.0, 0.0, 0.0, 0.0, 0.0, 1.6777062756749E9, 0.0, 2023-03-01 13:31:15.674
223.0, 28832.878629312352, 15269.840093832028, 0.0, -187500.02235174447, 0.0, 0.0, 0.0, -187500.02235174447, -0.3, 0.332, -0.888, 192.0, 0.0, 0.0, 0.0, 0.0, 0.0, 0.0, 0.0, 0.0, 0.0, 1.677706275682942E9, 0.0, 2023-03-01 13:31:15.682
224.0, 28828.296521699016, 15237.385360882923, 0.0, -187500.02235174447, 0.0, 0.0, 0.0, -187500.02235174447, -0.3, 0.332, -0.888, 192.0, 0.0, 0.0, 0.0, 0.0, 0.0, 0.0, 0.0, 0.0, 0.0, 1.677706275683033E9, 0.0, 2023-03-01 13:31:15.683
225.0, 28785.045896177995, 15164.71983965872, 0.0, -187500.02235174447, 0.0, 0.0, 0.0, -187500.02235174447, -0.3, 0.332, -0.888, 192.0, 0.0, 0.0, 0.0, 0.0, 0.0, 0.0, 0.0, 0.0, 0.0, 1.677706275690074E9, 0.0, 2023-03-01 13:31:15.690
226.0, 28782.475445565637, 15170.039554839082, 0.0, -187500.02235174447, 0.0, 0.0, 0.0, -187500.02235174447, -0.3, 0.332, -0.888, 192.0, 0.0, 0.0, 0.0, 0.0, 0.0, 0.0, 0.0, 0.0, 0.0, 1.677706275690091E9, 0.0, 2023-03-01 13:31:15.690
227.0, 28839.874725326867, 15239.039389972615, 0.0, -187500.02235174447, 0.0, 0.0, 0.0, -187500.02235174447, -0.3, 0.332, -0.888, 192.0, 0.0, 0.0, 0.0, 0.0, 0.0, 0.0, 0.0, 0.0, 0.0, 1.677706275698154E9, 0.0, 2023-03-01 13:31:15.698
228.0, 28836.79018459203, 15254.707962835786, 0.0, -187500.02235174447, 0.0, 0.0, 0.0, -187500.02235174447, -0.3, 0.332, -0.888, 192.0, 0.0, 0.0, 0.0, 0.0, 0.0, 0.0, 0.0, 0.0, 0.0, 1.677706275704459E9, 0.0, 2023-03-01 13:31:15.704
229.0, 28784.77767524453, 15195.028805140115, 0.0, -187500.02235174447, 0.0, 0.0, 0.0, -187500.02235174447, -0.3, 0.332, -0.888, 192.0, 0.0, 0.0, 0.0, 0.0, 0.0, 0.0, 0.0, 0.0, 0.0, 1.677706275704472E9, 0.0, 2023-03-01 13:31:15.704
230.0, 28767.030390147018, 15168.877264127406, 0.0, -187500.02235174447, 0.0, 0.0, 0.0, -187500.02235174447, -0.3, 0.332, -0.888, 192.0, 0.0, 0.0, 0.0, 0.0, 0.0, 0.0, 0.0, 0.0, 0.0, 1.677706275713206E9, 0.0, 2023-03-01 13:31:15.713
231.0, 28823.870876296864, 15222.566154309054, 0.0, -187500.02235174447, 0.0, 0.0, 0.0, -187500.02235174447, -0.3, 0.334, -0.886, 192.0, 246.0, 160.0, 10.0, 112.0, 228.0, 80.0, 0.0, 0.0, 0.0, 1.677706275713215E9, 0.0, 2023-03-01 13:31:15.713
232.0, 28837.61719913688, 15240.49225336221, 0.0, -187500.02235174447, 0.0, 0.0, 0.0, -187500.02235174447, -0.3, 0.334, -0.886, 192.0, 0.0, 0.0, 0.0, 0.0, 0.0, 0.0, 0.0, 0.0, 0.0, 1.677706275720697E9, 0.0, 2023-03-01 13:31:15.720
233.0, 28788.286899124018, 15182.511828245144, 0.0, -187500.02235174447, 0.0, 0.0, 0.0, -187500.02235174447, -0.3, 0.334, -0.886, 192.0, 0.0, 0.0, 0.0, 0.0, 0.0, 0.0, 0.0, 0.0, 0.0, 1.677706275720716E9, 0.0, 2023-03-01 13:31:15.720
234.0, 28762.805910444968, 15151.264089496624, 0.0, -187500.02235174447, 0.0, 0.0, 0.0, -187500.02235174447, -0.3, 0.334, -0.886, 192.0, 0.0, 0.0, 0.0, 0.0, 0.0, 0.0, 0.0, 0.0, 0.0, 1.677706275727737E9, 0.0, 2023-03-01 13:31:15.727
235.0, 28803.642547564814, 15210.898543703384, 0.0, -187500.02235174447, 0.0, 0.0, 0.0, -187500.02235174447, -0.3, 0.334, -0.886, 192.0, 0.0, 0.0, 0.0, 0.0, 0.0, 0.0, 0.0, 0.0, 0.0, 1.677706275727753E9, 0.0, 2023-03-01 13:31:15.727
236.0, 28832.94568454572, 15251.221090700757, 0.0, -187500.02235174447, 0.0, 0.0, 0.0, -187500.02235174447, -0.3, 0.334, -0.886, 192.0, 0.0, 0.0, 0.0, 0.0, 0.0, 0.0, 0.0, 0.0, 0.0, 1.67770627573518E9, 0.0, 2023-03-01 13:31:15.735
237.0, 28803.08375395343, 15211.3902820814, 0.0, -187500.02235174447, 0.0, 0.0, 0.0, -187500.02235174447, -0.3, 0.334, -0.886, 192.0, 0.0, 0.0, 0.0, 0.0, 0.0, 0.0, 0.0, 0.0, 0.0, 1.677706275735197E9, 0.0, 2023-03-01 13:31:15.735
238.0, 28772.21599486065, 15170.128961816903, 0.0, -187500.02235174447, 0.0, 0.0, 0.0, -187500.02235174447, -0.3, 0.334, -0.886, 192.0, 0.0, 0.0, 0.0, 0.0, 0.0, 0.0, 0.0, 0.0, 0.0, 1.677706275743168E9, 0.0, 2023-03-01 13:31:15.743
239.0, 28810.83980927942, 15216.419424583844, 0.0, -187500.02235174447, 0.0, 0.0, 0.0, -187500.02235174447, -0.3, 0.334, -0.886, 192.0, 0.0, 0.0, 0.0, 0.0, 0.0, 0.0, 0.0, 0.0, 0.0, 1.677706275743189E9, 0.0, 2023-03-01 13:31:15.743
240.0, 28844.322722473473, 15261.726410594752, 0.0, -187500.02235174447, 0.0, 0.0, 0.0, -187500.02235174447, -0.3, 0.334, -0.886, 192.0, 0.0, 0.0, 0.0, 0.0, 0.0, 0.0, 0.0, 0.0, 0.0, 1.677706275750167E9, 0.0, 2023-03-01 13:31:15.750
241.0, 28812.046803480007, 15227.237668900212, 0.0, -187500.02235174447, 0.0, 0.0, 0.0, -187500.02235174447, -0.304, 0.334, -0.892, 192.0, 246.0, 128.0, 10.0, 112.0, 228.0, 32.0, 0.0, 0.0, 0.0, 1.677706275750181E9, 0.0, 2023-03-01 13:31:15.750
242.0, 28769.623192503834, 15166.016240837127, 0.0, -187500.02235174447, 0.0, 0.0, 0.0, -187500.02235174447, -0.304, 0.334, -0.892, 192.0, 0.0, 0.0, 0.0, 0.0, 0.0, 0.0, 0.0, 0.0, 0.0, 1.677706275756784E9, 0.0, 2023-03-01 13:31:15.756
243.0, 28798.12166668435, 15195.431136540312, 0.0, -187500.02235174447, 0.0, 0.0, 0.0, -187500.02235174447, -0.304, 0.334, -0.892, 192.0, 0.0, 0.0, 0.0, 0.0, 0.0, 0.0, 0.0, 0.0, 0.0, 1.677706275764766E9, 0.0, 2023-03-01 13:31:15.764
244.0, 28851.721149888177, 15252.785712812629, 0.0, -187500.02235174447, 0.0, 0.0, 0.0, -187500.02235174447, -0.304, 0.334, -0.892, 192.0, 0.0, 0.0, 0.0, 0.0, 0.0, 0.0, 0.0, 0.0, 0.0, 1.677706275764785E9, 0.0, 2023-03-01 13:31:15.764
245.0, 28834.71147235769, 15228.511718334166, 0.0, -187500.02235174447, 0.0, 0.0, 0.0, -187500.02235174447, -0.304, 0.334, -0.892, 192.0, 0.0, 0.0, 0.0, 0.0, 0.0, 0.0, 0.0, 0.0, 0.0, 1.677706275772845E9, 0.0, 2023-03-01 13:31:15.772
246.0, 28785.291765367005, 15167.267938526624, 0.0, -187500.02235174447, 0.0, 0.0, 0.0, -187500.02235174447, -0.304, 0.334, -0.892, 192.0, 0.0, 0.0, 0.0, 0.0, 0.0, 0.0, 0.0, 0.0, 0.0, 1.677706275772863E9, 0.0, 2023-03-01 13:31:15.772
247.0, 28781.044933920497, 15180.991909622182, 0.0, -187500.02235174447, 0.0, 0.0, 0.0, -187500.02235174447, -0.304, 0.334, -0.892, 192.0, 0.0, 0.0, 0.0, 0.0, 0.0, 0.0, 0.0, 0.0, 0.0, 1.677706275780026E9, 0.0, 2023-03-01 13:31:15.780
248.0, 28834.823231079965, 15255.825550058551, 0.0, -187500.02235174447, 0.0, 0.0, 0.0, -187500.02235174447, -0.304, 0.334, -0.892, 192.0, 0.0, 0.0, 0.0, 0.0, 0.0, 0.0, 0.0, 0.0, 0.0, 1.677706275780042E9, 0.0, 2023-03-01 13:31:15.780
249.0, 28821.546294873515, 15248.047142988104, 0.0, -187500.02235174447, 0.0, 0.0, 0.0, -187500.02235174447, -0.304, 0.334, -0.892, 192.0, 0.0, 0.0, 0.0, 0.0, 0.0, 0.0, 0.0, 0.0, 0.0, 1.677706275787441E9, 0.0, 2023-03-01 13:31:15.787
250.0, 28767.723294225132, 15159.824807623007, 0.0, -187500.02235174447, 0.0, 0.0, 0.0, -187500.02235174447, -0.304, 0.334, -0.892, 192.0, 0.0, 0.0, 0.0, 0.0, 0.0, 0.0, 0.0, 0.0, 0.0, 1.677706275787456E9, 0.0, 2023-03-01 13:31:15.787
251.0, 28767.41036980276, 15145.787912105074, 0.0, -187500.02235174447, 0.0, 0.0, 0.0, -187500.02235174447, -0.302, 0.336, -0.892, 192.0, 246.0, 144.0, 10.0, 128.0, 228.0, 32.0, 0.0, 0.0, 0.0, 1.677706275795353E9, 0.0, 2023-03-01 13:31:15.795
252.0, 28826.910713542788, 15214.407767582867, 0.0, -187500.02235174447, 0.0, 0.0, 0.0, -187500.02235174447, -0.302, 0.336, -0.892, 192.0, 0.0, 0.0, 0.0, 0.0, 0.0, 0.0, 0.0, 0.0, 0.0, 1.677706275795377E9, 0.0, 2023-03-01 13:31:15.795
253.0, 28824.429669908248, 15222.856726986973, 0.0, -187500.02235174447, 0.0, 0.0, 0.0, -187500.02235174447, -0.302, 0.336, -0.892, 192.0, 0.0, 0.0, 0.0, 0.0, 0.0, 0.0, 0.0, 0.0, 0.0, 1.677706275803527E9, 0.0, 2023-03-01 13:31:15.803
254.0, 28777.870986207843, 15161.322374501513, 0.0, -187500.02235174447, 0.0, 0.0, 0.0, -187500.02235174447, -0.302, 0.336, -0.892, 192.0, 0.0, 0.0, 0.0, 0.0, 0.0, 0.0, 0.0, 0.0, 0.0, 1.677706275803548E9, 0.0, 2023-03-01 13:31:15.803
255.0, 28761.55421275547, 15147.821920850507, 0.0, -187500.02235174447, 0.0, 0.0, 0.0, -187500.02235174447, -0.302, 0.336, -0.892, 192.0, 0.0, 0.0, 0.0, 0.0, 0.0, 0.0, 0.0, 0.0, 0.0, 1.677706275810069E9, 0.0, 2023-03-01 13:31:15.810
0.0, 28808.89520751181, 15208.551610535576, 0.0, -187500.02235174447, 0.0, 0.0, 0.0, -187500.02235174447, -0.302, 0.336, -0.892, 192.0, 0.0, 0.0, 0.0, 0.0, 0.0, 0.0, 0.0, 0.0, 0.0, 1.677706275810109E9, 0.0, 2023-03-01 13:31:15.810
1.0, 28832.94568454572, 15231.685666046818, 0.0, -187500.02235174447, 0.0, 0.0, 0.0, -187500.02235174447, -0.302, 0.336, -0.892, 192.0, 0.0, 0.0, 0.0, 0.0, 0.0, 0.0, 0.0, 0.0, 0.0, 1.677706275817094E9, 0.0, 2023-03-01 13:31:15.817
2.0, 28785.42587583374, 15177.125057831414, 0.0, -187500.02235174447, 0.0, 0.0, 0.0, -187500.02235174447, -0.302, 0.336, -0.892, 192.0, 0.0, 0.0, 0.0, 0.0, 0.0, 0.0, 0.0, 0.0, 0.0, 1.677706275825569E9, 0.0, 2023-03-01 13:31:15.825
3.0, 28750.26658180554, 15154.728609887197, 0.0, -187500.02235174447, 0.0, 0.0, 0.0, -187500.02235174447, -0.302, 0.336, -0.892, 192.0, 0.0, 0.0, 0.0, 0.0, 0.0, 0.0, 0.0, 0.0, 0.0, 1.677706275825585E9, 0.0, 2023-03-01 13:31:15.825
4.0, 28788.488064824112, 15212.19494488179, 0.0, -187500.02235174447, 0.0, 0.0, 0.0, -187500.02235174447, -0.302, 0.336, -0.892, 192.0, 0.0, 0.0, 0.0, 0.0, 0.0, 0.0, 0.0, 0.0, 0.0, 1.677706275833142E9, 0.0, 2023-03-01 13:31:15.833
5.0, 28823.133268729838, 15242.347448152, 0.0, -187500.02235174447, 0.0, 0.0, 0.0, -187500.02235174447, -0.298, 0.334, -0.894, 192.0, 246.0, 176.0, 10.0, 112.0, 228.0, 16.0, 0.0, 0.0, 0.0, 1.677706275833152E9, 0.0, 2023-03-01 13:31:15.833
6.0, 28789.672707280246, 15194.894694673383, 0.0, -187500.02235174447, 0.0, 0.0, 0.0, -187500.02235174447, -0.298, 0.334, -0.894, 192.0, 0.0, 0.0, 0.0, 0.0, 0.0, 0.0, 0.0, 0.0, 0.0, 1.677706275839745E9, 0.0, 2023-03-01 13:31:15.839
7.0, 28754.491061507593, 15145.542042916066, 0.0, -187500.02235174447, 0.0, 0.0, 0.0, -187500.02235174447, -0.298, 0.334, -0.894, 192.0, 0.0, 0.0, 0.0, 0.0, 0.0, 0.0, 0.0, 0.0, 0.0, 1.677706275839754E9, 0.0, 2023-03-01 13:31:15.839
8.0, 28785.962317700665, 15194.425308039823, 0.0, -187500.02235174447, 0.0, 0.0, 0.0, -187500.02235174447, -0.298, 0.334, -0.894, 192.0, 0.0, 0.0, 0.0, 0.0, 0.0, 0.0, 0.0, 0.0, 0.0, 1.677706275847639E9, 0.0, 2023-03-01 13:31:15.847
9.0, 28832.23042872315, 15246.326058665045, 0.0, -187500.02235174447, 0.0, 0.0, 0.0, -187500.02235174447, -0.298, 0.334, -0.894, 192.0, 0.0, 0.0, 0.0, 0.0, 0.0, 0.0, 0.0, 0.0, 0.0, 1.677706275847665E9, 0.0, 2023-03-01 13:31:15.847
10.0, 28815.712489570677, 15208.082223902014, 0.0, -187500.02235174447, 0.0, 0.0, 0.0, -187500.02235174447, -0.298, 0.334, -0.894, 192.0, 0.0, 0.0, 0.0, 0.0, 0.0, 0.0, 0.0, 0.0, 0.0, 1.677706275855735E9, 0.0, 2023-03-01 13:31:15.855
11.0, 28778.27331760804, 15150.124150529404, 0.0, -187500.02235174447, 0.0, 0.0, 0.0, -187500.02235174447, -0.298, 0.334, -0.894, 192.0, 0.0, 0.0, 0.0, 0.0, 0.0, 0.0, 0.0, 0.0, 0.0, 1.677706275855754E9, 0.0, 2023-03-01 13:31:15.855
12.0, 28790.633832291824, 15181.930682889306, 0.0, -187500.02235174447, 0.0, 0.0, 0.0, -187500.02235174447, -0.298, 0.334, -0.894, 192.0, 0.0, 0.0, 0.0, 0.0, 0.0, 0.0, 0.0, 0.0, 0.0, 1.677706275862806E9, 0.0, 2023-03-01 13:31:15.862
13.0, 28830.151716488806, 15248.650640088397, 0.0, -187500.02235174447, 0.0, 0.0, 0.0, -187500.02235174447, -0.298, 0.334, -0.894, 192.0, 0.0, 0.0, 0.0, 0.0, 0.0, 0.0, 0.0, 0.0, 0.0, 1.677706275862823E9, 0.0, 2023-03-01 13:31:15.862
14.0, 28800.42389636325, 15218.654599029374, 0.0, -187500.02235174447, 0.0, 0.0, 0.0, -187500.02235174447, -0.298, 0.334, -0.894, 192.0, 0.0, 0.0, 0.0, 0.0, 0.0, 0.0, 0.0, 0.0, 0.0, 1.677706275870285E9, 0.0, 2023-03-01 13:31:15.870
15.0, 28747.137337581797, 15161.121208801414, 0.0, -187500.02235174447, 0.0, 0.0, 0.0, -187500.02235174447, -0.298, 0.336, -0.888, 192.0, 246.0, 176.0, 10.0, 128.0, 228.0, 64.0, 0.0, 0.0, 0.0, 1.6777062758703E9, 0.0, 2023-03-01 13:31:15.870
16.0, 28760.34721855488, 15168.296118771568, 0.0, -187500.02235174447, 0.0, 0.0, 0.0, -187500.02235174447, -0.298, 0.336, -0.888, 192.0, 0.0, 0.0, 0.0, 0.0, 0.0, 0.0, 0.0, 0.0, 0.0, 1.677706275877281E9, 0.0, 2023-03-01 13:31:15.877
17.0, 28805.296576654506, 15218.073453673536, 0.0, -187500.02235174447, 0.0, 0.0, 0.0, -187500.02235174447, -0.298, 0.336, -0.888, 192.0, 0.0, 0.0, 0.0, 0.0, 0.0, 0.0, 0.0, 0.0, 0.0, 1.677706275885457E9, 0.0, 2023-03-01 13:31:15.885
18.0, 28798.658108551277, 15218.542840307098, 0.0, -187500.02235174447, 0.0, 0.0, 0.0, -187500.02235174447, -0.298, 0.336, -0.888, 192.0, 0.0, 0.0, 0.0, 0.0, 0.0, 0.0, 0.0, 0.0, 0.0, 1.677706275885473E9, 0.0, 2023-03-01 13:31:15.885
19.0, 28767.276259336028, 15168.251415282657, 0.0, -187500.02235174447, 0.0, 0.0, 0.0, -187500.02235174447, -0.298, 0.336, -0.888, 192.0, 0.0, 0.0, 0.0, 0.0, 0.0, 0.0, 0.0, 0.0, 0.0, 1.677706275892567E9, 0.0, 2023-03-01 13:31:15.892
20.0, 28762.291820322494, 15159.914214600829, 0.0, -187500.02235174447, 0.0, 0.0, 0.0, -187500.02235174447, -0.298, 0.336, -0.888, 192.0, 0.0, 0.0, 0.0, 0.0, 0.0, 0.0, 0.0, 0.0, 0.0, 1.677706275892586E9, 0.0, 2023-03-01 13:31:15.892
21.0, 28797.853445750887, 15207.255209357168, 0.0, -187500.02235174447, 0.0, 0.0, 0.0, -187500.02235174447, -0.298, 0.336, -0.888, 192.0, 0.0, 0.0, 0.0, 0.0, 0.0, 0.0, 0.0, 0.0, 0.0, 1.677706275901401E9, 0.0, 2023-03-01 13:31:15.901
22.0, 28800.356841129884, 15217.469956573244, 0.0, -187500.02235174447, 0.0, 0.0, 0.0, -187500.02235174447, -0.298, 0.336, -0.888, 192.0, 0.0, 0.0, 0.0, 0.0, 0.0, 0.0, 0.0, 0.0, 0.0, 1.677706275901417E9, 0.0, 2023-03-01 13:31:15.901
23.0, 28782.542500799, 15183.070621856526, 0.0, -187500.02235174447, 0.0, 0.0, 0.0, -187500.02235174447, -0.298, 0.336, -0.888, 192.0, 0.0, 0.0, 0.0, 0.0, 0.0, 0.0, 0.0, 0.0, 0.0, 1.677706275907916E9, 0.0, 2023-03-01 13:31:15.907
24.0, 28768.12562562533, 15170.307775772546, 0.0, -187500.02235174447, 0.0, 0.0, 0.0, -187500.02235174447, -0.298, 0.336, -0.888, 192.0, 0.0, 0.0, 0.0, 0.0, 0.0, 0.0, 0.0, 0.0, 0.0, 1.677706275907926E9, 0.0, 2023-03-01 13:31:15.907
25.0, 28789.717410769157, 15211.524392548132, 0.0, -187500.02235174447, 0.0, 0.0, 0.0, -187500.02235174447, -0.3, 0.342, -0.88, 192.0, 246.0, 160.0, 10.0, 176.0, 228.0, 128.0, 0.0, 0.0, 0.0, 1.677706275915924E9, 0.0, 2023-03-01 13:31:15.915
26.0, 28804.447210365204, 15233.362046880968, 0.0, -187500.02235174447, 0.0, 0.0, 0.0, -187500.02235174447, -0.3, 0.342, -0.88, 192.0, 0.0, 0.0, 0.0, 0.0, 0.0, 0.0, 0.0, 0.0, 0.0, 1.677706275915936E9, 0.0, 2023-03-01 13:31:15.915
27.0, 28784.688268266713, 15190.938435904794, 0.0, -187500.02235174447, 0.0, 0.0, 0.0, -187500.02235174447, -0.3, 0.342, -0.88, 192.0, 0.0, 0.0, 0.0, 0.0, 0.0, 0.0, 0.0, 0.0, 0.0, 1.67770627592264E9, 0.0, 2023-03-01 13:31:15.922
28.0, 28769.332619825916, 15163.736362902686, 0.0, -187500.02235174447, 0.0, 0.0, 0.0, -187500.02235174447, -0.3, 0.342, -0.88, 192.0, 0.0, 0.0, 0.0, 0.0, 0.0, 0.0, 0.0, 0.0, 0.0, 1.677706275922648E9, 0.0, 2023-03-01 13:31:15.922
29.0, 28788.30925086847, 15202.606046510464, 0.0, -187500.02235174447, 0.0, 0.0, 0.0, -187500.02235174447, -0.3, 0.342, -0.88, 192.0, 0.0, 0.0, 0.0, 0.0, 0.0, 0.0, 0.0, 0.0, 0.0, 1.677706275930612E9, 0.0, 2023-03-01 13:31:15.930
30.0, 28808.291710411515, 15223.750796765185, 0.0, -187500.02235174447, 0.0, 0.0, 0.0, -187500.02235174447, -0.3, 0.342, -0.88, 192.0, 0.0, 0.0, 0.0, 0.0, 0.0, 0.0, 0.0, 0.0, 0.0, 1.677706275930627E9, 0.0, 2023-03-01 13:31:15.930
31.0, 28788.55512005748, 15191.273712071625, 0.0, -187500.02235174447, 0.0, 0.0, 0.0, -187500.02235174447, -0.3, 0.342, -0.88, 192.0, 0.0, 0.0, 0.0, 0.0, 0.0, 0.0, 0.0, 0.0, 0.0, 1.677706275937699E9, 0.0, 2023-03-01 13:31:15.937
32.0, 28760.235459832606, 15160.294194256569, 0.0, -187500.02235174447, 0.0, 0.0, 0.0, -187500.02235174447, -0.3, 0.342, -0.88, 192.0, 0.0, 0.0, 0.0, 0.0, 0.0, 0.0, 0.0, 0.0, 0.0, 1.677706275937715E9, 0.0, 2023-03-01 13:31:15.937
33.0, 28775.144073384297, 15187.384508536401, 0.0, -187500.02235174447, 0.0, 0.0, 0.0, -187500.02235174447, -0.3, 0.342, -0.88, 192.0, 0.0, 0.0, 0.0, 0.0, 0.0, 0.0, 0.0, 0.0, 0.0, 1.677706275944797E9, 0.0, 2023-03-01 13:31:15.944
34.0, 28798.680460295735, 15231.886831746917, 0.0, -187500.02235174447, 0.0, 0.0, 0.0, -187500.02235174447, -0.3, 0.342, -0.88, 192.0, 0.0, 0.0, 0.0, 0.0, 0.0, 0.0, 0.0, 0.0, 0.0, 1.67770627595222E9, 0.0, 2023-03-01 13:31:15.952
35.0, 28796.17706491674, 15209.848011713984, 0.0, -187500.02235174447, 0.0, 0.0, 0.0, -187500.02235174447, -0.306, 0.34, -0.884, 192.0, 246.0, 112.0, 10.0, 160.0, 228.0, 96.0, 0.0, 0.0, 0.0, 1.677706275952232E9, 0.0, 2023-03-01 13:31:15.952
36.0, 28774.250003606085, 15169.52546471661, 0.0, -187500.02235174447, 0.0, 0.0, 0.0, -187500.02235174447, -0.306, 0.34, -0.884, 192.0, 0.0, 0.0, 0.0, 0.0, 0.0, 0.0, 0.0, 0.0, 0.0, 1.677706275960228E9, 0.0, 2023-03-01 13:31:15.960
37.0, 28784.308288610973, 15195.229970840213, 0.0, -187500.02235174447, 0.0, 0.0, 0.0, -187500.02235174447, -0.306, 0.34, -0.884, 192.0, 0.0, 0.0, 0.0, 0.0, 0.0, 0.0, 0.0, 0.0, 0.0, 1.677706275960236E9, 0.0, 2023-03-01 13:31:15.960
38.0, 28818.819382049965, 15235.73133179323, 0.0, -187500.02235174447, 0.0, 0.0, 0.0, -187500.02235174447, -0.306, 0.34, -0.884, 192.0, 0.0, 0.0, 0.0, 0.0, 0.0, 0.0, 0.0, 0.0, 0.0, 1.677706275968387E9, 0.0, 2023-03-01 13:31:15.968
39.0, 28812.158562202283, 15220.82271824154, 0.0, -187500.02235174447, 0.0, 0.0, 0.0, -187500.02235174447, -0.306, 0.34, -0.884, 192.0, 0.0, 0.0, 0.0, 0.0, 0.0, 0.0, 0.0, 0.0, 0.0, 1.677706275968405E9, 0.0, 2023-03-01 13:31:15.968
40.0, 28779.055628663973, 15183.651767212365, 0.0, -187500.02235174447, 0.0, 0.0, 0.0, -187500.02235174447, -0.306, 0.34, -0.884, 192.0, 0.0, 0.0, 0.0, 0.0, 0.0, 0.0, 0.0, 0.0, 0.0, 1.677706275974914E9, 0.0, 2023-03-01 13:31:15.974
41.0, 28782.766018243554, 15187.76448819214, 0.0, -187500.02235174447, 0.0, 0.0, 0.0, -187500.02235174447, -0.306, 0.34, -0.884, 192.0, 0.0, 0.0, 0.0, 0.0, 0.0, 0.0, 0.0, 0.0, 0.0, 1.677706275974942E9, 0.0, 2023-03-01 13:31:15.974
42.0, 28817.634739593836, 15227.036503200115, 0.0, -187500.02235174447, 0.0, 0.0, 0.0, -187500.02235174447, -0.306, 0.34, -0.884, 192.0, 0.0, 0.0, 0.0, 0.0, 0.0, 0.0, 0.0, 0.0, 0.0, 1.677706275982935E9, 0.0, 2023-03-01 13:31:15.982
43.0, 28818.260588438585, 15224.53310782112, 0.0, -187500.02235174447, 0.0, 0.0, 0.0, -187500.02235174447, -0.306, 0.34, -0.884, 192.0, 0.0, 0.0, 0.0, 0.0, 0.0, 0.0, 0.0, 0.0, 0.0, 1.677706275982952E9, 0.0, 2023-03-01 13:31:15.982
44.0, 28787.817512490456, 15185.238741068692, 0.0, -187500.02235174447, 0.0, 0.0, 0.0, -187500.02235174447, -0.306, 0.34, -0.884, 192.0, 0.0, 0.0, 0.0, 0.0, 0.0, 0.0, 0.0, 0.0, 0.0, 1.677706275992324E9, 0.0, 2023-03-01 13:31:15.992
45.0, 28775.50170129558, 15177.52738923161, 0.0, -187500.02235174447, 0.0, 0.0, 0.0, -187500.02235174447, -0.3, 0.336, -0.88, 192.0, 246.0, 160.0, 10.0, 128.0, 228.0, 128.0, 0.0, 0.0, 0.0, 1.677706275992336E9, 0.0, 2023-03-01 13:31:15.992
46.0, 28799.239253907115, 15221.113290919458, 0.0, -187500.02235174447, 0.0, 0.0, 0.0, -187500.02235174447, -0.3, 0.336, -0.88, 192.0, 0.0, 0.0, 0.0, 0.0, 0.0, 0.0, 0.0, 0.0, 0.0, 1.677706275998518E9, 0.0, 2023-03-01 13:31:15.998
47.0, 28811.152733701794, 15239.329962650534, 0.0, -187500.02235174447, 0.0, 0.0, 0.0, -187500.02235174447, -0.3, 0.336, -0.88, 192.0, 0.0, 0.0, 0.0, 0.0, 0.0, 0.0, 0.0, 0.0, 0.0, 1.677706275998529E9, 0.0, 2023-03-01 13:31:15.998
48.0, 28790.18679740272, 15203.67893024432, 0.0, -187500.02235174447, 0.0, 0.0, 0.0, -187500.02235174447, -0.3, 0.336, -0.88, 192.0, 0.0, 0.0, 0.0, 0.0, 0.0, 0.0, 0.0, 0.0, 0.0, 1.677706276004717E9, 0.0, 2023-03-01 13:31:16.004
49.0, 28767.656238991767, 15173.168799062825, 0.0, -187500.02235174447, 0.0, 0.0, 0.0, -187500.02235174447, -0.3, 0.336, -0.88, 192.0, 0.0, 0.0, 0.0, 0.0, 0.0, 0.0, 0.0, 0.0, 0.0, 1.677706276012623E9, 0.0, 2023-03-01 13:31:16.012
50.0, 28781.179044387227, 15197.040462141093, 0.0, -187500.02235174447, 0.0, 0.0, 0.0, -187500.02235174447, -0.3, 0.336, -0.88, 192.0, 0.0, 0.0, 0.0, 0.0, 0.0, 0.0, 0.0, 0.0, 0.0, 1.677706276012642E9, 0.0, 2023-03-01 13:31:16.012
51.0, 28799.84275100741, 15218.364026351455, 0.0, -187500.02235174447, 0.0, 0.0, 0.0, -187500.02235174447, -0.3, 0.336, -0.88, 192.0, 0.0, 0.0, 0.0, 0.0, 0.0, 0.0, 0.0, 0.0, 0.0, 1.677706276020566E9, 0.0, 2023-03-01 13:31:16.020
52.0, 28786.163483400764, 15193.777107450618, 0.0, -187500.02235174447, 0.0, 0.0, 0.0, -187500.02235174447, -0.3, 0.336, -0.88, 192.0, 0.0, 0.0, 0.0, 0.0, 0.0, 0.0, 0.0, 0.0, 0.0, 1.677706276020585E9, 0.0, 2023-03-01 13:31:16.020
53.0, 28775.389942573303, 15174.845179896973, 0.0, -187500.02235174447, 0.0, 0.0, 0.0, -187500.02235174447, -0.3, 0.336, -0.88, 192.0, 0.0, 0.0, 0.0, 0.0, 0.0, 0.0, 0.0, 0.0, 0.0, 1.677706276027721E9, 0.0, 2023-03-01 13:31:16.027
54.0, 28788.242195635106, 15201.041424398592, 0.0, -187500.02235174447, 0.0, 0.0, 0.0, -187500.02235174447, -0.3, 0.336, -0.88, 192.0, 0.0, 0.0, 0.0, 0.0, 0.0, 0.0, 0.0, 0.0, 0.0, 1.677706276027738E9, 0.0, 2023-03-01 13:31:16.027
55.0, 28804.715431298668, 15227.036503200115, 0.0, -187500.02235174447, 0.0, 0.0, 0.0, -187500.02235174447, -0.3, 0.336, -0.88, 192.0, 0.0, 0.0, 0.0, 0.0, 0.0, 0.0, 0.0, 0.0, 0.0, 1.677706276036537E9, 0.0, 2023-03-01 13:31:16.036
56.0, 28793.27133813755, 15207.29991284608, 0.0, -187500.02235174447, 0.0, 0.0, 0.0, -187500.02235174447, -0.298, 0.338, -0.882, 192.0, 246.0, 176.0, 10.0, 144.0, 228.0, 112.0, 0.0, 0.0, 0.0, 1.677706276036551E9, 0.0, 2023-03-01 13:31:16.036
57.0, 28778.60859377487, 15177.773258420619, 0.0, -187500.02235174447, 0.0, 0.0, 0.0, -187500.02235174447, -0.298, 0.338, -0.882, 192.0, 0.0, 0.0, 0.0, 0.0, 0.0, 0.0, 0.0, 0.0, 0.0, 1.677706276043204E9, 0.0, 2023-03-01 13:31:16.043
58.0, 28795.03712594952, 15206.271732601135, 0.0, -187500.02235174447, 0.0, 0.0, 0.0, -187500.02235174447, -0.298, 0.338, -0.882, 192.0, 0.0, 0.0, 0.0, 0.0, 0.0, 0.0, 0.0, 0.0, 0.0, 1.677706276043215E9, 0.0, 2023-03-01 13:31:16.043
59.0, 28812.627948835845, 15237.117139949458, 0.0, -187500.02235174447, 0.0, 0.0, 0.0, -187500.02235174447, -0.298, 0.338, -0.882, 192.0, 0.0, 0.0, 0.0, 0.0, 0.0, 0.0, 0.0, 0.0, 0.0, 1.677706276051178E9, 0.0, 2023-03-01 13:31:16.051
60.0, 28800.200378918697, 15218.945171707293, 0.0, -187500.02235174447, 0.0, 0.0, 0.0, -187500.02235174447, -0.298, 0.338, -0.882, 192.0, 0.0, 0.0, 0.0, 0.0, 0.0, 0.0, 0.0, 0.0, 0.0, 1.677706276051209E9, 0.0, 2023-03-01 13:31:16.051
61.0, 28778.7427042416, 15180.723688688719, 0.0, -187500.02235174447, 0.0, 0.0, 0.0, -187500.02235174447, -0.298, 0.338, -0.882, 192.0, 0.0, 0.0, 0.0, 0.0, 0.0, 0.0, 0.0, 0.0, 0.0, 1.677706276057781E9, 0.0, 2023-03-01 13:31:16.057
62.0, 28787.973974701643, 15195.028805140115, 0.0, -187500.02235174447, 0.0, 0.0, 0.0, -187500.02235174447, -0.298, 0.338, -0.882, 192.0, 0.0, 0.0, 0.0, 0.0, 0.0, 0.0, 0.0, 0.0, 0.0, 1.677706276057806E9, 0.0, 2023-03-01 13:31:16.057
63.0, 28805.453038865693, 15233.876137003439, 0.0, -187500.02235174447, 0.0, 0.0, 0.0, -187500.02235174447, -0.298, 0.338, -0.882, 192.0, 0.0, 0.0, 0.0, 0.0, 0.0, 0.0, 0.0, 0.0, 0.0, 1.677706276064919E9, 0.0, 2023-03-01 13:31:16.064
64.0, 28814.550198859, 15223.81785199855, 0.0, -187500.02235174447, 0.0, 0.0, 0.0, -187500.02235174447, -0.298, 0.338, -0.882, 192.0, 0.0, 0.0, 0.0, 0.0, 0.0, 0.0, 0.0, 0.0, 0.0, 1.677706276072901E9, 0.0, 2023-03-01 13:31:16.072
65.0, 28794.992422460607, 15190.759621949152, 0.0, -187500.02235174447, 0.0, 0.0, 0.0, -187500.02235174447, -0.298, 0.338, -0.882, 192.0, 0.0, 0.0, 0.0, 0.0, 0.0, 0.0, 0.0, 0.0, 0.0, 1.677706276072935E9, 0.0, 2023-03-01 13:31:16.072
66.0, 28783.905957210776, 15199.812078453551, 0.0, -187500.02235174447, 0.0, 0.0, 0.0, -187500.02235174447, -0.298, 0.34, -0.888, 192.0, 246.0, 176.0, 10.0, 160.0, 228.0, 64.0, 0.0, 0.0, 0.0, 1.677706276080818E9, 0.0, 2023-03-01 13:31:16.080
67.0, 28810.236312179128, 15237.541823094109, 0.0, -187500.02235174447, 0.0, 0.0, 0.0, -187500.02235174447, -0.298, 0.34, -0.888, 192.0, 0.0, 0.0, 0.0, 0.0, 0.0, 0.0, 0.0, 0.0, 0.0, 1.677706276080833E9, 0.0, 2023-03-01 13:31:16.080
68.0, 28818.014719249575, 15231.462148602266, 0.0, -187500.02235174447, 0.0, 0.0, 0.0, -187500.02235174447, -0.298, 0.34, -0.888, 192.0, 0.0, 0.0, 0.0, 0.0, 0.0, 0.0, 0.0, 0.0, 0.0, 1.677706276087497E9, 0.0, 2023-03-01 13:31:16.087
69.0, 28794.88066373833, 15191.877209171917, 0.0, -187500.02235174447, 0.0, 0.0, 0.0, -187500.02235174447, -0.298, 0.34, -0.888, 192.0, 0.0, 0.0, 0.0, 0.0, 0.0, 0.0, 0.0, 0.0, 0.0, 1.677706276087508E9, 0.0, 2023-03-01 13:31:16.087
70.0, 28788.018678190554, 15194.000624895172, 0.0, -187500.02235174447, 0.0, 0.0, 0.0, -187500.02235174447, -0.298, 0.34, -0.888, 192.0, 0.0, 0.0, 0.0, 0.0, 0.0, 0.0, 0.0, 0.0, 0.0, 1.677706276095474E9, 0.0, 2023-03-01 13:31:16.095
71.0, 28813.454963380693, 15231.797424769096, 0.0, -187500.02235174447, 0.0, 0.0, 0.0, -187500.02235174447, -0.298, 0.34, -0.888, 192.0, 0.0, 0.0, 0.0, 0.0, 0.0, 0.0, 0.0, 0.0, 0.0, 1.67770627609549E9, 0.0, 2023-03-01 13:31:16.095
72.0, 28814.61725409237, 15231.506852091177, 0.0, -187500.02235174447, 0.0, 0.0, 0.0, -187500.02235174447, -0.298, 0.34, -0.888, 192.0, 0.0, 0.0, 0.0, 0.0, 0.0, 0.0, 0.0, 0.0, 0.0, 1.677706276103395E9, 0.0, 2023-03-01 13:31:16.103
73.0, 28781.13434089832, 15186.065755613537, 0.0, -187500.02235174447, 0.0, 0.0, 0.0, -187500.02235174447, -0.298, 0.34, -0.888, 192.0, 0.0, 0.0, 0.0, 0.0, 0.0, 0.0, 0.0, 0.0, 0.0, 1.677706276103411E9, 0.0, 2023-03-01 13:31:16.103
74.0, 28760.257811577063, 15166.463275726233, 0.0, -187500.02235174447, 0.0, 0.0, 0.0, -187500.02235174447, -0.298, 0.34, -0.888, 192.0, 0.0, 0.0, 0.0, 0.0, 0.0, 0.0, 0.0, 0.0, 0.0, 1.677706276110532E9, 0.0, 2023-03-01 13:31:16.110
75.0, 28780.68730600921, 15204.125965133426, 0.0, -187500.02235174447, 0.0, 0.0, 0.0, -187500.02235174447, -0.298, 0.34, -0.888, 192.0, 0.0, 0.0, 0.0, 0.0, 0.0, 0.0, 0.0, 0.0, 0.0, 1.677706276110547E9, 0.0, 2023-03-01 13:31:16.110
76.0, 28805.78831503252, 15216.240610628201, 0.0, -187500.02235174447, 0.0, 0.0, 0.0, -187500.02235174447, -0.296, 0.336, -0.886, 192.0, 246.0, 192.0, 10.0, 128.0, 228.0, 80.0, 0.0, 0.0, 0.0, 1.67770627611799E9, 0.0, 2023-03-01 13:31:16.117
77.0, 28788.26454737956, 15189.418517281834, 0.0, -187500.02235174447, 0.0, 0.0, 0.0, -187500.02235174447, -0.296, 0.336, -0.886, 192.0, 0.0, 0.0, 0.0, 0.0, 0.0, 0.0, 0.0, 0.0, 0.0, 1.677706276118004E9, 0.0, 2023-03-01 13:31:16.118
78.0, 28773.825320461434, 15160.942394845772, 0.0, -187500.02235174447, 0.0, 0.0, 0.0, -187500.02235174447, -0.296, 0.336, -0.886, 192.0, 0.0, 0.0, 0.0, 0.0, 0.0, 0.0, 0.0, 0.0, 0.0, 1.677706276125085E9, 0.0, 2023-03-01 13:31:16.125
79.0, 28782.855425221376, 15200.10265113147, 0.0, -187500.02235174447, 0.0, 0.0, 0.0, -187500.02235174447, -0.296, 0.336, -0.886, 192.0, 0.0, 0.0, 0.0, 0.0, 0.0, 0.0, 0.0, 0.0, 0.0, 1.677706276133019E9, 0.0, 2023-03-01 13:31:16.133
80.0, 28805.900073754798, 15228.288200889612, 0.0, -187500.02235174447, 0.0, 0.0, 0.0, -187500.02235174447, -0.296, 0.336, -0.886, 192.0, 0.0, 0.0, 0.0, 0.0, 0.0, 0.0, 0.0, 0.0, 0.0, 1.677706276133027E9, 0.0, 2023-03-01 13:31:16.133
81.0, 28805.095410954407, 15193.888866172894, 0.0, -187500.02235174447, 0.0, 0.0, 0.0, -187500.02235174447, -0.296, 0.336, -0.886, 192.0, 0.0, 0.0, 0.0, 0.0, 0.0, 0.0, 0.0, 0.0, 0.0, 1.677706276140245E9, 0.0, 2023-03-01 13:31:16.140
82.0, 28767.477425036126, 15158.260185511135, 0.0, -187500.02235174447, 0.0, 0.0, 0.0, -187500.02235174447, -0.296, 0.336, -0.886, 192.0, 0.0, 0.0, 0.0, 0.0, 0.0, 0.0, 0.0, 0.0, 0.0, 1.677706276140328E9, 0.0, 2023-03-01 13:31:16.140
83.0, 28780.061457164462, 15183.741174190185, 0.0, -187500.02235174447, 0.0, 0.0, 0.0, -187500.02235174447, -0.296, 0.336, -0.886, 192.0, 0.0, 0.0, 0.0, 0.0, 0.0, 0.0, 0.0, 0.0, 0.0, 1.677706276147733E9, 0.0, 2023-03-01 13:31:16.147
84.0, 28797.294652139506, 15229.428139856833, 0.0, -187500.02235174447, 0.0, 0.0, 0.0, -187500.02235174447, -0.296, 0.336, -0.886, 192.0, 0.0, 0.0, 0.0, 0.0, 0.0, 0.0, 0.0, 0.0, 0.0, 1.677706276147747E9, 0.0, 2023-03-01 13:31:16.147
85.0, 28795.148884671795, 15219.81688974105, 0.0, -187500.02235174447, 0.0, 0.0, 0.0, -187500.02235174447, -0.296, 0.336, -0.886, 192.0, 0.0, 0.0, 0.0, 0.0, 0.0, 0.0, 0.0, 0.0, 0.0, 1.677706276155608E9, 0.0, 2023-03-01 13:31:16.155
86.0, 28791.37143985885, 15188.85972367045, 0.0, -187500.02235174447, 0.0, 0.0, 0.0, -187500.02235174447, -0.296, 0.336, -0.888, 192.0, 246.0, 192.0, 10.0, 128.0, 228.0, 64.0, 0.0, 0.0, 0.0, 1.677706276155623E9, 0.0, 2023-03-01 13:31:16.155
87.0, 28790.61148054737, 15202.002549410172, 0.0, -187500.02235174447, 0.0, 0.0, 0.0, -187500.02235174447, -0.296, 0.336, -0.888, 192.0, 0.0, 0.0, 0.0, 0.0, 0.0, 0.0, 0.0, 0.0, 0.0, 1.677706276162874E9, 0.0, 2023-03-01 13:31:16.162
88.0, 28786.007021189576, 15228.265849145157, 0.0, -187500.02235174447, 0.0, 0.0, 0.0, -187500.02235174447, -0.296, 0.336, -0.888, 192.0, 0.0, 0.0, 0.0, 0.0, 0.0, 0.0, 0.0, 0.0, 0.0, 1.67770627616289E9, 0.0, 2023-03-01 13:31:16.162
89.0, 28783.190701388205, 15217.671122273341, 0.0, -187500.02235174447, 0.0, 0.0, 0.0, -187500.02235174447, -0.296, 0.336, -0.888, 192.0, 0.0, 0.0, 0.0, 0.0, 0.0, 0.0, 0.0, 0.0, 0.0, 1.677706276170305E9, 0.0, 2023-03-01 13:31:16.170
90.0, 28757.799119686977, 15174.375793263413, 0.0, -187500.02235174447, 0.0, 0.0, 0.0, -187500.02235174447, -0.296, 0.336, -0.888, 192.0, 0.0, 0.0, 0.0, 0.0, 0.0, 0.0, 0.0, 0.0, 0.0, 1.677706276170317E9, 0.0, 2023-03-01 13:31:16.170
91.0, 28745.416253258736, 15166.66444142633, 0.0, -187500.02235174447, 0.0, 0.0, 0.0, -187500.02235174447, -0.296, 0.336, -0.888, 192.0, 0.0, 0.0, 0.0, 0.0, 0.0, 0.0, 0.0, 0.0, 0.0, 1.677706276178297E9, 0.0, 2023-03-01 13:31:16.178
92.0, 28762.850613933875, 15205.824697712029, 0.0, -187500.02235174447, 0.0, 0.0, 0.0, -187500.02235174447, -0.296, 0.336, -0.888, 192.0, 0.0, 0.0, 0.0, 0.0, 0.0, 0.0, 0.0, 0.0, 0.0, 1.677706276178315E9, 0.0, 2023-03-01 13:31:16.178
93.0, 28762.090654622396, 15211.636151270408, 0.0, -187500.02235174447, 0.0, 0.0, 0.0, -187500.02235174447, -0.296, 0.336, -0.888, 192.0, 0.0, 0.0, 0.0, 0.0, 0.0, 0.0, 0.0, 0.0, 0.0, 1.677706276185288E9, 0.0, 2023-03-01 13:31:16.185
94.0, 28741.191773556686, 15186.736307947196, 0.0, -187500.02235174447, 0.0, 0.0, 0.0, -187500.02235174447, -0.296, 0.336, -0.888, 192.0, 0.0, 0.0, 0.0, 0.0, 0.0, 0.0, 0.0, 0.0, 0.0, 1.677706276185318E9, 0.0, 2023-03-01 13:31:16.185
95.0, 28727.713671650134, 15184.948168390772, 0.0, -187500.02235174447, 0.0, 0.0, 0.0, -187500.02235174447, -0.296, 0.336, -0.888, 192.0, 0.0, 0.0, 0.0, 0.0, 0.0, 0.0, 0.0, 0.0, 0.0, 1.677706276193502E9, 0.0, 2023-03-01 13:31:16.193
96.0, 28743.628113702314, 15213.893677460395, 0.0, -187500.02235174447, 0.0, 0.0, 0.0, -187500.02235174447, -0.298, 0.336, -0.886, 192.0, 246.0, 176.0, 10.0, 128.0, 228.0, 80.0, 0.0, 0.0, 0.0, 1.67770627619993E9, 0.0, 2023-03-01 13:31:16.199
97.0, 28747.942000382187, 15219.63807578541, 0.0, -187500.02235174447, 0.0, 0.0, 0.0, -187500.02235174447, -0.298, 0.336, -0.886, 192.0, 0.0, 0.0, 0.0, 0.0, 0.0, 0.0, 0.0, 0.0, 0.0, 1.67770627619994E9, 0.0, 2023-03-01 13:31:16.199
98.0, 28731.804040885454, 15183.517656745633, 0.0, -187500.02235174447, 0.0, 0.0, 0.0, -187500.02235174447, -0.298, 0.336, -0.886, 192.0, 0.0, 0.0, 0.0, 0.0, 0.0, 0.0, 0.0, 0.0, 0.0, 1.677706276207991E9, 0.0, 2023-03-01 13:31:16.207
99.0, 28725.523200693515, 15165.748019903664, 0.0, -187500.02235174447, 0.0, 0.0, 0.0, -187500.02235174447, -0.298, 0.336, -0.886, 192.0, 0.0, 0.0, 0.0, 0.0, 0.0, 0.0, 0.0, 0.0, 0.0, 1.677706276208002E9, 0.0, 2023-03-01 13:31:16.208
100.0, 28735.134450809295, 15203.813040711051, 0.0, -187500.02235174447, 0.0, 0.0, 0.0, -187500.02235174447, -0.298, 0.336, -0.886, 192.0, 0.0, 0.0, 0.0, 0.0, 0.0, 0.0, 0.0, 0.0, 0.0, 1.677706276215973E9, 0.0, 2023-03-01 13:31:16.215
101.0, 28746.757357926057, 15230.545727079598, 0.0, -187500.02235174447, 0.0, 0.0, 0.0, -187500.02235174447, -0.298, 0.336, -0.886, 192.0, 0.0, 0.0, 0.0, 0.0, 0.0, 0.0, 0.0, 0.0, 0.0, 1.677706276215984E9, 0.0, 2023-03-01 13:31:16.215
102.0, 28738.330750266407, 15192.994796394683, 0.0, -187500.02235174447, 0.0, 0.0, 0.0, -187500.02235174447, -0.298, 0.336, -0.886, 192.0, 0.0, 0.0, 0.0, 0.0, 0.0, 0.0, 0.0, 0.0, 0.0, 1.677706276222553E9, 0.0, 2023-03-01 13:31:16.222
103.0, 28720.315244235426, 15159.645993667364, 0.0, -187500.02235174447, 0.0, 0.0, 0.0, -187500.02235174447, -0.298, 0.336, -0.886, 192.0, 0.0, 0.0, 0.0, 0.0, 0.0, 0.0, 0.0, 0.0, 0.0, 1.677706276222571E9, 0.0, 2023-03-01 13:31:16.222
104.0, 28741.795270656978, 15200.10265113147, 0.0, -187500.02235174447, 0.0, 0.0, 0.0, -187500.02235174447, -0.298, 0.336, -0.886, 192.0, 0.0, 0.0, 0.0, 0.0, 0.0, 0.0, 0.0, 0.0, 0.0, 1.677706276230544E9, 0.0, 2023-03-01 13:31:16.230
105.0, 28768.036218647507, 15233.004418969682, 0.0, -187500.02235174447, 0.0, 0.0, 0.0, -187500.02235174447, -0.298, 0.336, -0.886, 192.0, 0.0, 0.0, 0.0, 0.0, 0.0, 0.0, 0.0, 0.0, 0.0, 1.677706276230563E9, 0.0, 2023-03-01 13:31:16.230
106.0, 28754.17813708522, 15202.829563955018, 0.0, -187500.02235174447, 0.0, 0.0, 0.0, -187500.02235174447, -0.306, 0.34, -0.89, 192.0, 246.0, 112.0, 10.0, 160.0, 228.0, 48.0, 0.0, 0.0, 0.0, 1.677706276238675E9, 0.0, 2023-03-01 13:31:16.238
107.0, 28725.679662904702, 15163.199921035759, 0.0, -187500.02235174447, 0.0, 0.0, 0.0, -187500.02235174447, -0.306, 0.34, -0.89, 192.0, 0.0, 0.0, 0.0, 0.0, 0.0, 0.0, 0.0, 0.0, 0.0, 1.677706276238691E9, 0.0, 2023-03-01 13:31:16.238
108.0, 28739.135413066797, 15184.970520135228, 0.0, -187500.02235174447, 0.0, 0.0, 0.0, -187500.02235174447, -0.306, 0.34, -0.89, 192.0, 0.0, 0.0, 0.0, 0.0, 0.0, 0.0, 0.0, 0.0, 0.0, 1.677706276245681E9, 0.0, 2023-03-01 13:31:16.245
109.0, 28755.11691035234, 15231.01511371316, 0.0, -187500.02235174447, 0.0, 0.0, 0.0, -187500.02235174447, -0.306, 0.34, -0.89, 192.0, 0.0, 0.0, 0.0, 0.0, 0.0, 0.0, 0.0, 0.0, 0.0, 1.677706276245695E9, 0.0, 2023-03-01 13:31:16.245
110.0, 28751.428872517215, 15219.571020552043, 0.0, -187500.02235174447, 0.0, 0.0, 0.0, -187500.02235174447, -0.306, 0.34, -0.89, 192.0, 0.0, 0.0, 0.0, 0.0, 0.0, 0.0, 0.0, 0.0, 0.0, 1.677706276252138E9, 0.0, 2023-03-01 13:31:16.252
111.0, 28736.92259036572, 15178.71203168774, 0.0, -187500.02235174447, 0.0, 0.0, 0.0, -187500.02235174447, -0.306, 0.34, -0.89, 192.0, 0.0, 0.0, 0.0, 0.0, 0.0, 0.0, 0.0, 0.0, 0.0, 1.67770627626026E9, 0.0, 2023-03-01 13:31:16.260
112.0, 28731.468764718626, 15196.302854574067, 0.0, -187500.02235174447, 0.0, 0.0, 0.0, -187500.02235174447, -0.306, 0.34, -0.89, 192.0, 0.0, 0.0, 0.0, 0.0, 0.0, 0.0, 0.0, 0.0, 0.0, 1.677706276260278E9, 0.0, 2023-03-01 13:31:16.260
113.0, 28752.233535317606, 15236.603049826987, 0.0, -187500.02235174447, 0.0, 0.0, 0.0, -187500.02235174447, -0.306, 0.34, -0.89, 192.0, 0.0, 0.0, 0.0, 0.0, 0.0, 0.0, 0.0, 0.0, 0.0, 1.677706276268229E9, 0.0, 2023-03-01 13:31:16.268
114.0, 28759.408445287758, 15220.934476963816, 0.0, -187500.02235174447, 0.0, 0.0, 0.0, -187500.02235174447, -0.306, 0.34, -0.89, 192.0, 0.0, 0.0, 0.0, 0.0, 0.0, 0.0, 0.0, 0.0, 0.0, 1.677706276268301E9, 0.0, 2023-03-01 13:31:16.268
115.0, 28737.079052576908, 15177.52738923161, 0.0, -187500.02235174447, 0.0, 0.0, 0.0, -187500.02235174447, -0.306, 0.34, -0.89, 192.0, 0.0, 0.0, 0.0, 0.0, 0.0, 0.0, 0.0, 0.0, 0.0, 1.677706276275451E9, 0.0, 2023-03-01 13:31:16.275
116.0, 28734.530953709003, 15177.795610165074, 0.0, -187500.02235174447, 0.0, 0.0, 0.0, -187500.02235174447, -0.304, 0.338, -0.888, 192.0, 246.0, 128.0, 10.0, 144.0, 228.0, 64.0, 0.0, 0.0, 0.0, 1.677706276275468E9, 0.0, 2023-03-01 13:31:16.275
117.0, 28759.855480176866, 15223.750796765185, 0.0, -187500.02235174447, 0.0, 0.0, 0.0, -187500.02235174447, -0.304, 0.338, -0.888, 192.0, 0.0, 0.0, 0.0, 0.0, 0.0, 0.0, 0.0, 0.0, 0.0, 1.677706276282823E9, 0.0, 2023-03-01 13:31:16.282
118.0, 28758.89435516529, 15231.73036953573, 0.0, -187500.02235174447, 0.0, 0.0, 0.0, -187500.02235174447, -0.304, 0.338, -0.888, 192.0, 0.0, 0.0, 0.0, 0.0, 0.0, 0.0, 0.0, 0.0, 0.0, 1.677706276282833E9, 0.0, 2023-03-01 13:31:16.282
119.0, 28730.865267618334, 15191.586636493998, 0.0, -187500.02235174447, 0.0, 0.0, 0.0, -187500.02235174447, -0.304, 0.338, -0.888, 192.0, 0.0, 0.0, 0.0, 0.0, 0.0, 0.0, 0.0, 0.0, 0.0, 1.677706276290867E9, 0.0, 2023-03-01 13:31:16.290
120.0, 28719.26471224603, 15178.734383432196, 0.0, -187500.02235174447, 0.0, 0.0, 0.0, -187500.02235174447, -0.304, 0.338, -0.888, 192.0, 0.0, 0.0, 0.0, 0.0, 0.0, 0.0, 0.0, 0.0, 0.0, 1.677706276290879E9, 0.0, 2023-03-01 13:31:16.290
121.0, 28750.177174827717, 15224.846032243495, 0.0, -187500.02235174447, 0.0, 0.0, 0.0, -187500.02235174447, -0.304, 0.338, -0.888, 192.0, 0.0, 0.0, 0.0, 0.0, 0.0, 0.0, 0.0, 0.0, 0.0, 1.677706276298926E9, 0.0, 2023-03-01 13:31:16.298
122.0, 28766.225727346628, 15242.459206874277, 0.0, -187500.02235174447, 0.0, 0.0, 0.0, -187500.02235174447, -0.304, 0.338, -0.888, 192.0, 0.0, 0.0, 0.0, 0.0, 0.0, 0.0, 0.0, 0.0, 0.0, 1.677706276298937E9, 0.0, 2023-03-01 13:31:16.298
123.0, 28742.555229968457, 15197.040462141093, 0.0, -187500.02235174447, 0.0, 0.0, 0.0, -187500.02235174447, -0.304, 0.338, -0.888, 192.0, 0.0, 0.0, 0.0, 0.0, 0.0, 0.0, 0.0, 0.0, 0.0, 1.677706276305455E9, 0.0, 2023-03-01 13:31:16.305
124.0, 28721.410479713737, 15171.648880439865, 0.0, -187500.02235174447, 0.0, 0.0, 0.0, -187500.02235174447, -0.304, 0.338, -0.888, 192.0, 0.0, 0.0, 0.0, 0.0, 0.0, 0.0, 0.0, 0.0, 0.0, 1.677706276305491E9, 0.0, 2023-03-01 13:31:16.305
125.0, 28742.06349159044, 15207.47872680172, 0.0, -187500.02235174447, 0.0, 0.0, 0.0, -187500.02235174447, -0.304, 0.338, -0.888, 192.0, 0.0, 0.0, 0.0, 0.0, 0.0, 0.0, 0.0, 0.0, 0.0, 1.677706276312493E9, 0.0, 2023-03-01 13:31:16.312
126.0, 28760.011942388053, 15234.859613759472, 0.0, -187500.02235174447, 0.0, 0.0, 0.0, -187500.02235174447, -0.308, 0.336, -0.89, 192.0, 246.0, 96.0, 10.0, 128.0, 228.0, 48.0, 0.0, 0.0, 0.0, 1.677706276320503E9, 0.0, 2023-03-01 13:31:16.320
127.0, 28734.64271243128, 15204.930627933816, 0.0, -187500.02235174447, 0.0, 0.0, 0.0, -187500.02235174447, -0.308, 0.336, -0.89, 192.0, 0.0, 0.0, 0.0, 0.0, 0.0, 0.0, 0.0, 0.0, 0.0, 1.677706276320522E9, 0.0, 2023-03-01 13:31:16.320
128.0, 28709.11702026332, 15170.66540368383, 0.0, -187500.02235174447, 0.0, 0.0, 0.0, -187500.02235174447, -0.308, 0.336, -0.89, 192.0, 0.0, 0.0, 0.0, 0.0, 0.0, 0.0, 0.0, 0.0, 0.0, 1.677706276328617E9, 0.0, 2023-03-01 13:31:16.328
129.0, 28718.21418025663, 15189.798496937574, 0.0, -187500.02235174447, 0.0, 0.0, 0.0, -187500.02235174447, -0.308, 0.336, -0.89, 192.0, 0.0, 0.0, 0.0, 0.0, 0.0, 0.0, 0.0, 0.0, 0.0, 1.677706276328627E9, 0.0, 2023-03-01 13:31:16.328
130.0, 28746.444433503682, 15221.180346152825, 0.0, -187500.02235174447, 0.0, 0.0, 0.0, -187500.02235174447, -0.308, 0.336, -0.89, 192.0, 0.0, 0.0, 0.0, 0.0, 0.0, 0.0, 0.0, 0.0, 0.0, 1.677706276335185E9, 0.0, 2023-03-01 13:31:16.335
131.0, 28732.005206585553, 15197.375738307923, 0.0, -187500.02235174447, 0.0, 0.0, 0.0, -187500.02235174447, -0.308, 0.336, -0.89, 192.0, 0.0, 0.0, 0.0, 0.0, 0.0, 0.0, 0.0, 0.0, 0.0, 1.677706276335217E9, 0.0, 2023-03-01 13:31:16.335
132.0, 28712.849761587357, 15162.350554746457, 0.0, -187500.02235174447, 0.0, 0.0, 0.0, -187500.02235174447, -0.308, 0.336, -0.89, 192.0, 0.0, 0.0, 0.0, 0.0, 0.0, 0.0, 0.0, 0.0, 0.0, 1.677706276343156E9, 0.0, 2023-03-01 13:31:16.343
133.0, 28722.7292326366, 15189.642034726387, 0.0, -187500.02235174447, 0.0, 0.0, 0.0, -187500.02235174447, -0.308, 0.336, -0.89, 192.0, 0.0, 0.0, 0.0, 0.0, 0.0, 0.0, 0.0, 0.0, 0.0, 1.677706276343166E9, 0.0, 2023-03-01 13:31:16.343
134.0, 28754.78163418551, 15242.749779552196, 0.0, -187500.02235174447, 0.0, 0.0, 0.0, -187500.02235174447, -0.308, 0.336, -0.89, 192.0, 0.0, 0.0, 0.0, 0.0, 0.0, 0.0, 0.0, 0.0, 0.0, 1.67770627635114E9, 0.0, 2023-03-01 13:31:16.351
135.0, 28760.280163321517, 15222.566154309054, 0.0, -187500.02235174447, 0.0, 0.0, 0.0, -187500.02235174447, -0.308, 0.336, -0.89, 192.0, 0.0, 0.0, 0.0, 0.0, 0.0, 0.0, 0.0, 0.0, 0.0, 1.677706276351163E9, 0.0, 2023-03-01 13:31:16.351
136.0, 28736.16263105424, 15175.403973508355, 0.0, -187500.02235174447, 0.0, 0.0, 0.0, -187500.02235174447, -0.308, 0.336, -0.89, 192.0, 0.0, 0.0, 0.0, 0.0, 0.0, 0.0, 0.0, 0.0, 0.0, 1.677706276358326E9, 0.0, 2023-03-01 13:31:16.358
137.0, 28723.243322759074, 15183.495305001177, 0.0, -187500.02235174447, 0.0, 0.0, 0.0, -187500.02235174447, -0.304, 0.34, -0.892, 192.0, 246.0, 128.0, 10.0, 160.0, 228.0, 32.0, 0.0, 0.0, 0.0, 1.677706276358346E9, 0.0, 2023-03-01 13:31:16.358
138.0, 28738.509564222048, 15229.830471257028, 0.0, -187500.02235174447, 0.0, 0.0, 0.0, -187500.02235174447, -0.304, 0.34, -0.892, 192.0, 0.0, 0.0, 0.0, 0.0, 0.0, 0.0, 0.0, 0.0, 0.0, 1.67770627636586E9, 0.0, 2023-03-01 13:31:16.365
139.0, 28741.236477045593, 15229.942229979306, 0.0, -187500.02235174447, 0.0, 0.0, 0.0, -187500.02235174447, -0.304, 0.34, -0.892, 192.0, 0.0, 0.0, 0.0, 0.0, 0.0, 0.0, 0.0, 0.0, 0.0, 1.677706276365876E9, 0.0, 2023-03-01 13:31:16.365
140.0, 28728.227761772607, 15196.638130740897, 0.0, -187500.02235174447, 0.0, 0.0, 0.0, -187500.02235174447, -0.304, 0.34, -0.892, 192.0, 0.0, 0.0, 0.0, 0.0, 0.0, 0.0, 0.0, 0.0, 0.0, 1.677706276372908E9, 0.0, 2023-03-01 13:31:16.372
141.0, 28737.369625254825, 15193.441831283788, 0.0, -187500.02235174447, 0.0, 0.0, 0.0, -187500.02235174447, -0.304, 0.34, -0.892, 192.0, 0.0, 0.0, 0.0, 0.0, 0.0, 0.0, 0.0, 0.0, 0.0, 1.677706276380794E9, 0.0, 2023-03-01 13:31:16.380
142.0, 28760.771901699532, 15232.4456253583, 0.0, -187500.02235174447, 0.0, 0.0, 0.0, -187500.02235174447, -0.304, 0.34, -0.892, 192.0, 0.0, 0.0, 0.0, 0.0, 0.0, 0.0, 0.0, 0.0, 0.0, 1.677706276380803E9, 0.0, 2023-03-01 13:31:16.380
143.0, 28764.526994768024, 15238.570003339053, 0.0, -187500.02235174447, 0.0, 0.0, 0.0, -187500.02235174447, -0.304, 0.34, -0.892, 192.0, 0.0, 0.0, 0.0, 0.0, 0.0, 0.0, 0.0, 0.0, 0.0, 1.677706276387957E9, 0.0, 2023-03-01 13:31:16.387
144.0, 28732.698110663667, 15205.779994223118, 0.0, -187500.02235174447, 0.0, 0.0, 0.0, -187500.02235174447, -0.304, 0.34, -0.892, 192.0, 0.0, 0.0, 0.0, 0.0, 0.0, 0.0, 0.0, 0.0, 0.0, 1.677706276387979E9, 0.0, 2023-03-01 13:31:16.387
145.0, 28718.25888374554, 15193.799459195074, 0.0, -187500.02235174447, 0.0, 0.0, 0.0, -187500.02235174447, -0.304, 0.34, -0.892, 192.0, 0.0, 0.0, 0.0, 0.0, 0.0, 0.0, 0.0, 0.0, 0.0, 1.677706276396907E9, 0.0, 2023-03-01 13:31:16.396
146.0, 28738.17428805522, 15230.232802657225, 0.0, -187500.02235174447, 0.0, 0.0, 0.0, -187500.02235174447, -0.304, 0.34, -0.892, 192.0, 0.0, 0.0, 0.0, 0.0, 0.0, 0.0, 0.0, 0.0, 0.0, 1.677706276396924E9, 0.0, 2023-03-01 13:31:16.396
147.0, 28753.708750451657, 15238.279430661134, 0.0, -187500.02235174447, 0.0, 0.0, 0.0, -187500.02235174447, -0.302, 0.338, -0.892, 192.0, 246.0, 144.0, 10.0, 144.0, 228.0, 32.0, 0.0, 0.0, 0.0, 1.677706276403413E9, 0.0, 2023-03-01 13:31:16.403
148.0, 28745.662122447746, 15204.349482577978, 0.0, -187500.02235174447, 0.0, 0.0, 0.0, -187500.02235174447, -0.302, 0.338, -0.892, 192.0, 0.0, 0.0, 0.0, 0.0, 0.0, 0.0, 0.0, 0.0, 0.0, 1.677706276403428E9, 0.0, 2023-03-01 13:31:16.403
149.0, 28726.037290815984, 15180.656633455354, 0.0, -187500.02235174447, 0.0, 0.0, 0.0, -187500.02235174447, -0.302, 0.338, -0.892, 192.0, 0.0, 0.0, 0.0, 0.0, 0.0, 0.0, 0.0, 0.0, 0.0, 1.677706276410754E9, 0.0, 2023-03-01 13:31:16.410
150.0, 28741.571753212425, 15212.999607682183, 0.0, -187500.02235174447, 0.0, 0.0, 0.0, -187500.02235174447, -0.302, 0.338, -0.892, 192.0, 0.0, 0.0, 0.0, 0.0, 0.0, 0.0, 0.0, 0.0, 0.0, 1.677706276410768E9, 0.0, 2023-03-01 13:31:16.410
151.0, 28758.469672020638, 15231.462148602266, 0.0, -187500.02235174447, 0.0, 0.0, 0.0, -187500.02235174447, -0.302, 0.338, -0.892, 192.0, 0.0, 0.0, 0.0, 0.0, 0.0, 0.0, 0.0, 0.0, 0.0, 1.677706276418118E9, 0.0, 2023-03-01 13:31:16.418
152.0, 28742.510526479546, 15200.773203465129, 0.0, -187500.02235174447, 0.0, 0.0, 0.0, -187500.02235174447, -0.302, 0.338, -0.892, 192.0, 0.0, 0.0, 0.0, 0.0, 0.0, 0.0, 0.0, 0.0, 0.0, 1.677706276418128E9, 0.0, 2023-03-01 13:31:16.418
153.0, 28713.386203454284, 15165.23392978119, 0.0, -187500.02235174447, 0.0, 0.0, 0.0, -187500.02235174447, -0.302, 0.338, -0.892, 192.0, 0.0, 0.0, 0.0, 0.0, 0.0, 0.0, 0.0, 0.0, 0.0, 1.677706276426196E9, 0.0, 2023-03-01 13:31:16.426
154.0, 28724.20444777065, 15185.596368979976, 0.0, -187500.02235174447, 0.0, 0.0, 0.0, -187500.02235174447, -0.302, 0.338, -0.892, 192.0, 0.0, 0.0, 0.0, 0.0, 0.0, 0.0, 0.0, 0.0, 0.0, 1.677706276426205E9, 0.0, 2023-03-01 13:31:16.426
155.0, 28754.289895807495, 15226.835337500017, 0.0, -187500.02235174447, 0.0, 0.0, 0.0, -187500.02235174447, -0.302, 0.338, -0.892, 192.0, 0.0, 0.0, 0.0, 0.0, 0.0, 0.0, 0.0, 0.0, 0.0, 1.677706276433169E9, 0.0, 2023-03-01 13:31:16.433
156.0, 28735.089747320384, 15210.496212303187, 0.0, -187500.02235174447, 0.0, 0.0, 0.0, -187500.02235174447, -0.302, 0.338, -0.892, 192.0, 0.0, 0.0, 0.0, 0.0, 0.0, 0.0, 0.0, 0.0, 0.0, 1.677706276433189E9, 0.0, 2023-03-01 13:31:16.433
157.0, 28704.40080218325, 15171.157142061847, 0.0, -187500.02235174447, 0.0, 0.0, 0.0, -187500.02235174447, -0.3, 0.338, -0.89, 192.0, 246.0, 160.0, 10.0, 144.0, 228.0, 48.0, 0.0, 0.0, 0.0, 1.677706276440292E9, 0.0, 2023-03-01 13:31:16.440
158.0, 28721.097555291362, 15185.775182935618, 0.0, -187500.02235174447, 0.0, 0.0, 0.0, -187500.02235174447, -0.3, 0.338, -0.89, 192.0, 0.0, 0.0, 0.0, 0.0, 0.0, 0.0, 0.0, 0.0, 0.0, 1.677706276447744E9, 0.0, 2023-03-01 13:31:16.447
159.0, 28751.36181728385, 15230.836299757517, 0.0, -187500.02235174447, 0.0, 0.0, 0.0, -187500.02235174447, -0.3, 0.338, -0.89, 192.0, 0.0, 0.0, 0.0, 0.0, 0.0, 0.0, 0.0, 0.0, 0.0, 1.677706276447761E9, 0.0, 2023-03-01 13:31:16.447
160.0, 28747.83024165991, 15217.268790873146, 0.0, -187500.02235174447, 0.0, 0.0, 0.0, -187500.02235174447, -0.3, 0.338, -0.89, 192.0, 0.0, 0.0, 0.0, 0.0, 0.0, 0.0, 0.0, 0.0, 0.0, 1.677706276455752E9, 0.0, 2023-03-01 13:31:16.455
161.0, 28716.895427333766, 15172.34178451798, 0.0, -187500.02235174447, 0.0, 0.0, 0.0, -187500.02235174447, -0.3, 0.338, -0.89, 192.0, 0.0, 0.0, 0.0, 0.0, 0.0, 0.0, 0.0, 0.0, 0.0, 1.677706276455766E9, 0.0, 2023-03-01 13:31:16.455
162.0, 28709.027613285496, 15175.493380486178, 0.0, -187500.02235174447, 0.0, 0.0, 0.0, -187500.02235174447, -0.3, 0.338, -0.89, 192.0, 0.0, 0.0, 0.0, 0.0, 0.0, 0.0, 0.0, 0.0, 0.0, 1.677706276463767E9, 0.0, 2023-03-01 13:31:16.463
163.0, 28736.587314198892, 15218.095805417992, 0.0, -187500.02235174447, 0.0, 0.0, 0.0, -187500.02235174447, -0.3, 0.338, -0.89, 192.0, 0.0, 0.0, 0.0, 0.0, 0.0, 0.0, 0.0, 0.0, 0.0, 1.677706276463801E9, 0.0, 2023-03-01 13:31:16.463
164.0, 28739.336578766895, 15217.112328661959, 0.0, -187500.02235174447, 0.0, 0.0, 0.0, -187500.02235174447, -0.3, 0.338, -0.89, 192.0, 0.0, 0.0, 0.0, 0.0, 0.0, 0.0, 0.0, 0.0, 0.0, 1.677706276470421E9, 0.0, 2023-03-01 13:31:16.470
165.0, 28722.170439025216, 15178.823790410019, 0.0, -187500.02235174447, 0.0, 0.0, 0.0, -187500.02235174447, -0.3, 0.338, -0.89, 192.0, 0.0, 0.0, 0.0, 0.0, 0.0, 0.0, 0.0, 0.0, 0.0, 1.677706276470444E9, 0.0, 2023-03-01 13:31:16.470
166.0, 28727.467802461124, 15178.980252621204, 0.0, -187500.02235174447, 0.0, 0.0, 0.0, -187500.02235174447, -0.3, 0.338, -0.89, 192.0, 0.0, 0.0, 0.0, 0.0, 0.0, 0.0, 0.0, 0.0, 0.0, 1.67770627647826E9, 0.0, 2023-03-01 13:31:16.478
167.0, 28741.39293925678, 15220.308628119068, 0.0, -187500.02235174447, 0.0, 0.0, 0.0, -187500.02235174447, -0.304, 0.338, -0.892, 192.0, 246.0, 128.0, 10.0, 144.0, 228.0, 32.0, 0.0, 0.0, 0.0, 1.677706276478283E9, 0.0, 2023-03-01 13:31:16.478
168.0, 28739.02365434452, 15226.410654355366, 0.0, -187500.02235174447, 0.0, 0.0, 0.0, -187500.02235174447, -0.304, 0.338, -0.892, 192.0, 0.0, 0.0, 0.0, 0.0, 0.0, 0.0, 0.0, 0.0, 0.0, 1.677706276486471E9, 0.0, 2023-03-01 13:31:16.486
169.0, 28714.749659866055, 15189.597331237475, 0.0, -187500.02235174447, 0.0, 0.0, 0.0, -187500.02235174447, -0.304, 0.338, -0.892, 192.0, 0.0, 0.0, 0.0, 0.0, 0.0, 0.0, 0.0, 0.0, 0.0, 1.67770627648649E9, 0.0, 2023-03-01 13:31:16.486
170.0, 28703.01499402702, 15173.727592674208, 0.0, -187500.02235174447, 0.0, 0.0, 0.0, -187500.02235174447, -0.304, 0.338, -0.892, 192.0, 0.0, 0.0, 0.0, 0.0, 0.0, 0.0, 0.0, 0.0, 0.0, 1.677706276493534E9, 0.0, 2023-03-01 13:31:16.493
171.0, 28728.6300931728, 15209.602142524976, 0.0, -187500.02235174447, 0.0, 0.0, 0.0, -187500.02235174447, -0.304, 0.338, -0.892, 192.0, 0.0, 0.0, 0.0, 0.0, 0.0, 0.0, 0.0, 0.0, 0.0, 1.677706276493544E9, 0.0, 2023-03-01 13:31:16.493
172.0, 28748.992532371587, 15230.031636957126, 0.0, -187500.02235174447, 0.0, 0.0, 0.0, -187500.02235174447, -0.304, 0.338, -0.892, 192.0, 0.0, 0.0, 0.0, 0.0, 0.0, 0.0, 0.0, 0.0, 0.0, 1.677706276500053E9, 0.0, 2023-03-01 13:31:16.500
173.0, 28732.87692461931, 15191.899560916372, 0.0, -187500.02235174447, 0.0, 0.0, 0.0, -187500.02235174447, -0.304, 0.338, -0.892, 192.0, 0.0, 0.0, 0.0, 0.0, 0.0, 0.0, 0.0, 0.0, 0.0, 1.677706276507989E9, 0.0, 2023-03-01 13:31:16.507
174.0, 28718.325938978905, 15165.658612925841, 0.0, -187500.02235174447, 0.0, 0.0, 0.0, -187500.02235174447, -0.304, 0.338, -0.892, 192.0, 0.0, 0.0, 0.0, 0.0, 0.0, 0.0, 0.0, 0.0, 0.0, 1.677706276507999E9, 0.0, 2023-03-01 13:31:16.507
175.0, 28735.469726976127, 15201.130831376415, 0.0, -187500.02235174447, 0.0, 0.0, 0.0, -187500.02235174447, -0.304, 0.338, -0.892, 192.0, 0.0, 0.0, 0.0, 0.0, 0.0, 0.0, 0.0, 0.0, 0.0, 1.677706276516179E9, 0.0, 2023-03-01 13:31:16.516
176.0, 28760.07899762142, 15227.528241578131, 0.0, -187500.02235174447, 0.0, 0.0, 0.0, -187500.02235174447, -0.304, 0.338, -0.892, 192.0, 0.0, 0.0, 0.0, 0.0, 0.0, 0.0, 0.0, 0.0, 0.0, 1.677706276516196E9, 0.0, 2023-03-01 13:31:16.516
177.0, 28739.649503189266, 15207.72459599073, 0.0, -187500.02235174447, 0.0, 0.0, 0.0, -187500.02235174447, -0.3, 0.336, -0.89, 192.0, 246.0, 160.0, 10.0, 128.0, 228.0, 48.0, 0.0, 0.0, 0.0, 1.677706276523102E9, 0.0, 2023-03-01 13:31:16.523
178.0, 28715.643729644267, 15177.706203187252, 0.0, -187500.02235174447, 0.0, 0.0, 0.0, -187500.02235174447, -0.3, 0.336, -0.89, 192.0, 0.0, 0.0, 0.0, 0.0, 0.0, 0.0, 0.0, 0.0, 0.0, 1.677706276523119E9, 0.0, 2023-03-01 13:31:16.523
179.0, 28719.935264579686, 15195.654653984864, 0.0, -187500.02235174447, 0.0, 0.0, 0.0, -187500.02235174447, -0.3, 0.336, -0.89, 192.0, 0.0, 0.0, 0.0, 0.0, 0.0, 0.0, 0.0, 0.0, 0.0, 1.677706276530586E9, 0.0, 2023-03-01 13:31:16.530
180.0, 28746.444433503682, 15232.266811402656, 0.0, -187500.02235174447, 0.0, 0.0, 0.0, -187500.02235174447, -0.3, 0.336, -0.89, 192.0, 0.0, 0.0, 0.0, 0.0, 0.0, 0.0, 0.0, 0.0, 0.0, 1.677706276530602E9, 0.0, 2023-03-01 13:31:16.530
181.0, 28743.91868638023, 15210.116232647448, 0.0, -187500.02235174447, 0.0, 0.0, 0.0, -187500.02235174447, -0.3, 0.336, -0.89, 192.0, 0.0, 0.0, 0.0, 0.0, 0.0, 0.0, 0.0, 0.0, 0.0, 1.677706276538597E9, 0.0, 2023-03-01 13:31:16.538
182.0, 28716.694261633667, 15174.107572329947, 0.0, -187500.02235174447, 0.0, 0.0, 0.0, -187500.02235174447, -0.3, 0.336, -0.89, 192.0, 0.0, 0.0, 0.0, 0.0, 0.0, 0.0, 0.0, 0.0, 0.0, 1.67770627653861E9, 0.0, 2023-03-01 13:31:16.538
183.0, 28717.38716571178, 15189.954959148761, 0.0, -187500.02235174447, 0.0, 0.0, 0.0, -187500.02235174447, -0.3, 0.336, -0.89, 192.0, 0.0, 0.0, 0.0, 0.0, 0.0, 0.0, 0.0, 0.0, 0.0, 1.677706276547993E9, 0.0, 2023-03-01 13:31:16.547
184.0, 28745.97504687012, 15229.606953812476, 0.0, -187500.02235174447, 0.0, 0.0, 0.0, -187500.02235174447, -0.3, 0.336, -0.89, 192.0, 0.0, 0.0, 0.0, 0.0, 0.0, 0.0, 0.0, 0.0, 0.0, 1.677706276548003E9, 0.0, 2023-03-01 13:31:16.548
185.0, 28755.385131285806, 15222.499099075689, 0.0, -187500.02235174447, 0.0, 0.0, 0.0, -187500.02235174447, -0.3, 0.336, -0.89, 192.0, 0.0, 0.0, 0.0, 0.0, 0.0, 0.0, 0.0, 0.0, 0.0, 1.677706276554197E9, 0.0, 2023-03-01 13:31:16.554
186.0, 28726.864305360832, 15183.629415467909, 0.0, -187500.02235174447, 0.0, 0.0, 0.0, -187500.02235174447, -0.3, 0.336, -0.89, 192.0, 0.0, 0.0, 0.0, 0.0, 0.0, 0.0, 0.0, 0.0, 0.0, 1.677706276554206E9, 0.0, 2023-03-01 13:31:16.554
187.0, 28710.860456330833, 15176.029822353104, 0.0, -187500.02235174447, 0.0, 0.0, 0.0, -187500.02235174447, -0.306, 0.33, -0.892, 192.0, 246.0, 112.0, 10.0, 80.0, 228.0, 32.0, 0.0, 0.0, 0.0, 1.677706276560354E9, 0.0, 2023-03-01 13:31:16.560
188.0, 28729.4794594621, 15215.72652050573, 0.0, -187500.02235174447, 0.0, 0.0, 0.0, -187500.02235174447, -0.306, 0.33, -0.892, 192.0, 0.0, 0.0, 0.0, 0.0, 0.0, 0.0, 0.0, 0.0, 0.0, 1.677706276568152E9, 0.0, 2023-03-01 13:31:16.568
189.0, 28743.426948002216, 15224.35429386548, 0.0, -187500.02235174447, 0.0, 0.0, 0.0, -187500.02235174447, -0.306, 0.33, -0.892, 192.0, 0.0, 0.0, 0.0, 0.0, 0.0, 0.0, 0.0, 0.0, 0.0, 1.677706276568169E9, 0.0, 2023-03-01 13:31:16.568
190.0, 28723.243322759074, 15189.016185881637, 0.0, -187500.02235174447, 0.0, 0.0, 0.0, -187500.02235174447, -0.306, 0.33, -0.892, 192.0, 0.0, 0.0, 0.0, 0.0, 0.0, 0.0, 0.0, 0.0, 0.0, 1.677706276576343E9, 0.0, 2023-03-01 13:31:16.576
191.0, 28715.956654066642, 15186.490438758188, 0.0, -187500.02235174447, 0.0, 0.0, 0.0, -187500.02235174447, -0.306, 0.33, -0.892, 192.0, 0.0, 0.0, 0.0, 0.0, 0.0, 0.0, 0.0, 0.0, 0.0, 1.677706276576358E9, 0.0, 2023-03-01 13:31:16.576
192.0, 28733.97216009762, 15224.53310782112, 0.0, -187500.02235174447, 0.0, 0.0, 0.0, -187500.02235174447, -0.306, 0.33, -0.892, 192.0, 0.0, 0.0, 0.0, 0.0, 0.0, 0.0, 0.0, 0.0, 0.0, 1.67770627658296E9, 0.0, 2023-03-01 13:31:16.582
193.0, 28743.516354980035, 15231.953886980284, 0.0, -187500.02235174447, 0.0, 0.0, 0.0, -187500.02235174447, -0.306, 0.33, -0.892, 192.0, 0.0, 0.0, 0.0, 0.0, 0.0, 0.0, 0.0, 0.0, 0.0, 1.677706276582971E9, 0.0, 2023-03-01 13:31:16.582
194.0, 28744.16455556924, 15198.24745634168, 0.0, -187500.02235174447, 0.0, 0.0, 0.0, -187500.02235174447, -0.306, 0.33, -0.892, 192.0, 0.0, 0.0, 0.0, 0.0, 0.0, 0.0, 0.0, 0.0, 0.0, 1.677706276590918E9, 0.0, 2023-03-01 13:31:16.590
195.0, 28724.11504079283, 15186.28927305809, 0.0, -187500.02235174447, 0.0, 0.0, 0.0, -187500.02235174447, -0.306, 0.33, -0.892, 192.0, 0.0, 0.0, 0.0, 0.0, 0.0, 0.0, 0.0, 0.0, 0.0, 1.677706276590927E9, 0.0, 2023-03-01 13:31:16.590
196.0, 28731.513468207537, 15213.491346060198, 0.0, -187500.02235174447, 0.0, 0.0, 0.0, -187500.02235174447, -0.306, 0.33, -0.892, 192.0, 0.0, 0.0, 0.0, 0.0, 0.0, 0.0, 0.0, 0.0, 0.0, 1.677706276598969E9, 0.0, 2023-03-01 13:31:16.598
197.0, 28749.0372358605, 15226.58946831101, 0.0, -187500.02235174447, 0.0, 0.0, 0.0, -187500.02235174447, -0.3, 0.338, -0.896, 192.0, 246.0, 160.0, 10.0, 144.0, 228.0, 0.0, 0.0, 0.0, 0.0, 1.677706276598987E9, 0.0, 2023-03-01 13:31:16.598
198.0, 28736.989645599086, 15199.72267147573, 0.0, -187500.02235174447, 0.0, 0.0, 0.0, -187500.02235174447, -0.3, 0.338, -0.896, 192.0, 0.0, 0.0, 0.0, 0.0, 0.0, 0.0, 0.0, 0.0, 0.0, 1.677706276606097E9, 0.0, 2023-03-01 13:31:16.606
199.0, 28714.526142421502, 15170.62070019492, 0.0, -187500.02235174447, 0.0, 0.0, 0.0, -187500.02235174447, -0.3, 0.338, -0.896, 192.0, 0.0, 0.0, 0.0, 0.0, 0.0, 0.0, 0.0, 0.0, 0.0, 1.677706276606122E9, 0.0, 2023-03-01 13:31:16.606
200.0, 28723.198619270162, 15207.858706457462, 0.0, -187500.02235174447, 0.0, 0.0, 0.0, -187500.02235174447, -0.3, 0.338, -0.896, 192.0, 0.0, 0.0, 0.0, 0.0, 0.0, 0.0, 0.0, 0.0, 0.0, 1.677706276613548E9, 0.0, 2023-03-01 13:31:16.613
201.0, 28743.02461660202, 15243.73325630823, 0.0, -187500.02235174447, 0.0, 0.0, 0.0, -187500.02235174447, -0.3, 0.338, -0.896, 192.0, 0.0, 0.0, 0.0, 0.0, 0.0, 0.0, 0.0, 0.0, 0.0, 1.677706276613564E9, 0.0, 2023-03-01 13:31:16.613
202.0, 28737.280218277006, 15212.507869304165, 0.0, -187500.02235174447, 0.0, 0.0, 0.0, -187500.02235174447, -0.3, 0.338, -0.896, 192.0, 0.0, 0.0, 0.0, 0.0, 0.0, 0.0, 0.0, 0.0, 0.0, 1.677706276620516E9, 0.0, 2023-03-01 13:31:16.620
203.0, 28737.615494443835, 15188.300930059067, 0.0, -187500.02235174447, 0.0, 0.0, 0.0, -187500.02235174447, -0.3, 0.338, -0.896, 192.0, 0.0, 0.0, 0.0, 0.0, 0.0, 0.0, 0.0, 0.0, 0.0, 1.677706276628693E9, 0.0, 2023-03-01 13:31:16.628
204.0, 28753.26171556255, 15210.339750092, 0.0, -187500.02235174447, 0.0, 0.0, 0.0, -187500.02235174447, -0.3, 0.338, -0.896, 192.0, 0.0, 0.0, 0.0, 0.0, 0.0, 0.0, 0.0, 0.0, 0.0, 1.677706276628706E9, 0.0, 2023-03-01 13:31:16.628
205.0, 28753.842860918387, 15227.148261922392, 0.0, -187500.02235174447, 0.0, 0.0, 0.0, -187500.02235174447, -0.3, 0.338, -0.896, 192.0, 0.0, 0.0, 0.0, 0.0, 0.0, 0.0, 0.0, 0.0, 0.0, 1.677706276635217E9, 0.0, 2023-03-01 13:31:16.635
206.0, 28736.587314198892, 15205.087090145003, 0.0, -187500.02235174447, 0.0, 0.0, 0.0, -187500.02235174447, -0.3, 0.338, -0.896, 192.0, 0.0, 0.0, 0.0, 0.0, 0.0, 0.0, 0.0, 0.0, 0.0, 1.677706276635226E9, 0.0, 2023-03-01 13:31:16.635
207.0, 28714.12381102131, 15171.559473462043, 0.0, -187500.02235174447, 0.0, 0.0, 0.0, -187500.02235174447, -0.302, 0.34, -0.896, 192.0, 246.0, 144.0, 10.0, 160.0, 228.0, 0.0, 0.0, 0.0, 0.0, 1.677706276643275E9, 0.0, 2023-03-01 13:31:16.643
208.0, 28716.806020355943, 15181.10366834446, 0.0, -187500.02235174447, 0.0, 0.0, 0.0, -187500.02235174447, -0.302, 0.34, -0.896, 192.0, 0.0, 0.0, 0.0, 0.0, 0.0, 0.0, 0.0, 0.0, 0.0, 1.677706276643292E9, 0.0, 2023-03-01 13:31:16.643
209.0, 28745.25979104755, 15220.375683352433, 0.0, -187500.02235174447, 0.0, 0.0, 0.0, -187500.02235174447, -0.302, 0.34, -0.896, 192.0, 0.0, 0.0, 0.0, 0.0, 0.0, 0.0, 0.0, 0.0, 0.0, 1.677706276651215E9, 0.0, 2023-03-01 13:31:16.651
210.0, 28745.326846280917, 15212.038482670605, 0.0, -187500.02235174447, 0.0, 0.0, 0.0, -187500.02235174447, -0.302, 0.34, -0.896, 192.0, 0.0, 0.0, 0.0, 0.0, 0.0, 0.0, 0.0, 0.0, 0.0, 1.677706276651232E9, 0.0, 2023-03-01 13:31:16.651
211.0, 28724.74088963758, 15171.00067985066, 0.0, -187500.02235174447, 0.0, 0.0, 0.0, -187500.02235174447, -0.302, 0.34, -0.896, 192.0, 0.0, 0.0, 0.0, 0.0, 0.0, 0.0, 0.0, 0.0, 0.0, 1.677706276658373E9, 0.0, 2023-03-01 13:31:16.658
212.0, 28721.410479713737, 15172.274729284612, 0.0, -187500.02235174447, 0.0, 0.0, 0.0, -187500.02235174447, -0.302, 0.34, -0.896, 192.0, 0.0, 0.0, 0.0, 0.0, 0.0, 0.0, 0.0, 0.0, 0.0, 1.677706276658416E9, 0.0, 2023-03-01 13:31:16.658
213.0, 28739.627151444813, 15216.844107728495, 0.0, -187500.02235174447, 0.0, 0.0, 0.0, -187500.02235174447, -0.302, 0.34, -0.896, 192.0, 0.0, 0.0, 0.0, 0.0, 0.0, 0.0, 0.0, 0.0, 0.0, 1.677706276665842E9, 0.0, 2023-03-01 13:31:16.665
214.0, 28746.667950948235, 15217.134680406414, 0.0, -187500.02235174447, 0.0, 0.0, 0.0, -187500.02235174447, -0.302, 0.34, -0.896, 192.0, 0.0, 0.0, 0.0, 0.0, 0.0, 0.0, 0.0, 0.0, 0.0, 1.677706276665853E9, 0.0, 2023-03-01 13:31:16.665
215.0, 28719.22000875712, 15174.867531641428, 0.0, -187500.02235174447, 0.0, 0.0, 0.0, -187500.02235174447, -0.302, 0.34, -0.896, 192.0, 0.0, 0.0, 0.0, 0.0, 0.0, 0.0, 0.0, 0.0, 0.0, 1.677706276673859E9, 0.0, 2023-03-01 13:31:16.673
216.0, 28705.45133417265, 15157.254357010646, 0.0, -187500.02235174447, 0.0, 0.0, 0.0, -187500.02235174447, -0.302, 0.34, -0.896, 192.0, 0.0, 0.0, 0.0, 0.0, 0.0, 0.0, 0.0, 0.0, 0.0, 1.677706276673869E9, 0.0, 2023-03-01 13:31:16.673
217.0, 28731.446412974172, 15194.134735361904, 0.0, -187500.02235174447, 0.0, 0.0, 0.0, -187500.02235174447, -0.302, 0.34, -0.896, 192.0, 0.0, 0.0, 0.0, 0.0, 0.0, 0.0, 0.0, 0.0, 0.0, 1.677706276680933E9, 0.0, 2023-03-01 13:31:16.680
218.0, 28741.39293925678, 15209.646846013886, 0.0, -187500.02235174447, 0.0, 0.0, 0.0, -187500.02235174447, -0.3, 0.334, -0.894, 192.0, 246.0, 160.0, 10.0, 112.0, 228.0, 16.0, 0.0, 0.0, 0.0, 1.677706276680947E9, 0.0, 2023-03-01 13:31:16.680
219.0, 28730.35117749586, 15181.14837183337, 0.0, -187500.02235174447, 0.0, 0.0, 0.0, -187500.02235174447, -0.3, 0.334, -0.894, 192.0, 0.0, 0.0, 0.0, 0.0, 0.0, 0.0, 0.0, 0.0, 0.0, 1.677706276688211E9, 0.0, 2023-03-01 13:31:16.688
220.0, 28721.63399715829, 15156.80732212154, 0.0, -187500.02235174447, 0.0, 0.0, 0.0, -187500.02235174447, -0.3, 0.334, -0.894, 192.0, 0.0, 0.0, 0.0, 0.0, 0.0, 0.0, 0.0, 0.0, 0.0, 1.677706276695465E9, 0.0, 2023-03-01 13:31:16.695
221.0, 28729.904142606752, 15188.636206225898, 0.0, -187500.02235174447, 0.0, 0.0, 0.0, -187500.02235174447, -0.3, 0.334, -0.894, 192.0, 0.0, 0.0, 0.0, 0.0, 0.0, 0.0, 0.0, 0.0, 0.0, 1.677706276695483E9, 0.0, 2023-03-01 13:31:16.695
222.0, 28745.192735814184, 15219.34750310749, 0.0, -187500.02235174447, 0.0, 0.0, 0.0, -187500.02235174447, -0.3, 0.334, -0.894, 192.0, 0.0, 0.0, 0.0, 0.0, 0.0, 0.0, 0.0, 0.0, 0.0, 1.677706276703503E9, 0.0, 2023-03-01 13:31:16.703
223.0, 28731.088785062886, 15198.001587152672, 0.0, -187500.02235174447, 0.0, 0.0, 0.0, -187500.02235174447, -0.3, 0.334, -0.894, 192.0, 0.0, 0.0, 0.0, 0.0, 0.0, 0.0, 0.0, 0.0, 0.0, 1.677706276703521E9, 0.0, 2023-03-01 13:31:16.703
224.0, 28705.20546498364, 15157.455522710745, 0.0, -187500.02235174447, 0.0, 0.0, 0.0, -187500.02235174447, -0.3, 0.334, -0.894, 192.0, 0.0, 0.0, 0.0, 0.0, 0.0, 0.0, 0.0, 0.0, 0.0, 1.677706276711509E9, 0.0, 2023-03-01 13:31:16.711
225.0, 28714.615549399325, 15170.777162406108, 0.0, -187500.02235174447, 0.0, 0.0, 0.0, -187500.02235174447, -0.3, 0.334, -0.894, 192.0, 0.0, 0.0, 0.0, 0.0, 0.0, 0.0, 0.0, 0.0, 0.0, 1.677706276711523E9, 0.0, 2023-03-01 13:31:16.711
226.0, 28743.985741613596, 15205.91410468985, 0.0, -187500.02235174447, 0.0, 0.0, 0.0, -187500.02235174447, -0.3, 0.334, -0.894, 192.0, 0.0, 0.0, 0.0, 0.0, 0.0, 0.0, 0.0, 0.0, 0.0, 1.677706276718119E9, 0.0, 2023-03-01 13:31:16.718
227.0, 28729.34534899537, 15189.798496937574, 0.0, -187500.02235174447, 0.0, 0.0, 0.0, -187500.02235174447, -0.3, 0.334, -0.894, 192.0, 0.0, 0.0, 0.0, 0.0, 0.0, 0.0, 0.0, 0.0, 0.0, 1.677706276718128E9, 0.0, 2023-03-01 13:31:16.718
228.0, 28698.7234590916, 15172.006508351149, 0.0, -187500.02235174447, 0.0, 0.0, 0.0, -187500.02235174447, -0.3, 0.336, -0.886, 192.0, 246.0, 160.0, 10.0, 128.0, 228.0, 80.0, 0.0, 0.0, 0.0, 1.67770627672624E9, 0.0, 2023-03-01 13:31:16.726
229.0, 28720.44935470216, 15189.99966263767, 0.0, -187500.02235174447, 0.0, 0.0, 0.0, -187500.02235174447, -0.3, 0.336, -0.886, 192.0, 0.0, 0.0, 0.0, 0.0, 0.0, 0.0, 0.0, 0.0, 0.0, 1.677706276726256E9, 0.0, 2023-03-01 13:31:16.726
230.0, 28754.200488829672, 15215.145375149892, 0.0, -187500.02235174447, 0.0, 0.0, 0.0, -187500.02235174447, -0.3, 0.336, -0.886, 192.0, 0.0, 0.0, 0.0, 0.0, 0.0, 0.0, 0.0, 0.0, 0.0, 1.677706276734182E9, 0.0, 2023-03-01 13:31:16.734
231.0, 28750.154823083263, 15201.600218009975, 0.0, -187500.02235174447, 0.0, 0.0, 0.0, -187500.02235174447, -0.3, 0.336, -0.886, 192.0, 0.0, 0.0, 0.0, 0.0, 0.0, 0.0, 0.0, 0.0, 0.0, 1.677706276734198E9, 0.0, 2023-03-01 13:31:16.734
232.0, 28720.27054074652, 15170.710107172741, 0.0, -187500.02235174447, 0.0, 0.0, 0.0, -187500.02235174447, -0.3, 0.336, -0.886, 192.0, 0.0, 0.0, 0.0, 0.0, 0.0, 0.0, 0.0, 0.0, 0.0, 1.677706276741414E9, 0.0, 2023-03-01 13:31:16.741
233.0, 28713.743831365566, 15174.91223513034, 0.0, -187500.02235174447, 0.0, 0.0, 0.0, -187500.02235174447, -0.3, 0.336, -0.886, 192.0, 0.0, 0.0, 0.0, 0.0, 0.0, 0.0, 0.0, 0.0, 0.0, 1.677706276741434E9, 0.0, 2023-03-01 13:31:16.741
234.0, 28734.910933364743, 15215.503003061176, 0.0, -187500.02235174447, 0.0, 0.0, 0.0, -187500.02235174447, -0.3, 0.336, -0.886, 192.0, 0.0, 0.0, 0.0, 0.0, 0.0, 0.0, 0.0, 0.0, 0.0, 1.677706276747722E9, 0.0, 2023-03-01 13:31:16.747
235.0, 28735.156802553753, 15210.004473925172, 0.0, -187500.02235174447, 0.0, 0.0, 0.0, -187500.02235174447, -0.3, 0.336, -0.886, 192.0, 0.0, 0.0, 0.0, 0.0, 0.0, 0.0, 0.0, 0.0, 0.0, 1.677706276755735E9, 0.0, 2023-03-01 13:31:16.755
236.0, 28714.593197654867, 15160.897691356862, 0.0, -187500.02235174447, 0.0, 0.0, 0.0, -187500.02235174447, -0.3, 0.336, -0.886, 192.0, 0.0, 0.0, 0.0, 0.0, 0.0, 0.0, 0.0, 0.0, 0.0, 1.677706276755747E9, 0.0, 2023-03-01 13:31:16.755
237.0, 28713.6767761322, 15153.454560453245, 0.0, -187500.02235174447, 0.0, 0.0, 0.0, -187500.02235174447, -0.3, 0.336, -0.886, 192.0, 0.0, 0.0, 0.0, 0.0, 0.0, 0.0, 0.0, 0.0, 0.0, 1.677706276763796E9, 0.0, 2023-03-01 13:31:16.763
238.0, 28741.45999449015, 15200.884962187405, 0.0, -187500.02235174447, 0.0, 0.0, 0.0, -187500.02235174447, -0.302, 0.334, -0.886, 192.0, 246.0, 144.0, 10.0, 112.0, 228.0, 80.0, 0.0, 0.0, 0.0, 1.677706276763806E9, 0.0, 2023-03-01 13:31:16.763
239.0, 28752.032369617507, 15216.039444928105, 0.0, -187500.02235174447, 0.0, 0.0, 0.0, -187500.02235174447, -0.302, 0.334, -0.886, 192.0, 0.0, 0.0, 0.0, 0.0, 0.0, 0.0, 0.0, 0.0, 0.0, 1.677706276771055E9, 0.0, 2023-03-01 13:31:16.771
240.0, 28731.02172982952, 15185.730479446707, 0.0, -187500.02235174447, 0.0, 0.0, 0.0, -187500.02235174447, -0.302, 0.334, -0.886, 192.0, 0.0, 0.0, 0.0, 0.0, 0.0, 0.0, 0.0, 0.0, 0.0, 1.677706276771076E9, 0.0, 2023-03-01 13:31:16.771
241.0, 28718.080069789896, 15173.302909529557, 0.0, -187500.02235174447, 0.0, 0.0, 0.0, -187500.02235174447, -0.302, 0.334, -0.886, 192.0, 0.0, 0.0, 0.0, 0.0, 0.0, 0.0, 0.0, 0.0, 0.0, 1.677706276778408E9, 0.0, 2023-03-01 13:31:16.778
242.0, 28732.16166879674, 15216.307665861568, 0.0, -187500.02235174447, 0.0, 0.0, 0.0, -187500.02235174447, -0.302, 0.334, -0.886, 192.0, 0.0, 0.0, 0.0, 0.0, 0.0, 0.0, 0.0, 0.0, 0.0, 1.677706276778424E9, 0.0, 2023-03-01 13:31:16.778
243.0, 28751.428872517215, 15231.909183491372, 0.0, -187500.02235174447, 0.0, 0.0, 0.0, -187500.02235174447, -0.302, 0.334, -0.886, 192.0, 0.0, 0.0, 0.0, 0.0, 0.0, 0.0, 0.0, 0.0, 0.0, 1.677706276786389E9, 0.0, 2023-03-01 13:31:16.786
244.0, 28740.990607856587, 15193.888866172894, 0.0, -187500.02235174447, 0.0, 0.0, 0.0, -187500.02235174447, -0.302, 0.334, -0.886, 192.0, 0.0, 0.0, 0.0, 0.0, 0.0, 0.0, 0.0, 0.0, 0.0, 1.677706276786432E9, 0.0, 2023-03-01 13:31:16.786
245.0, 28707.328880706893, 15163.401086735856, 0.0, -187500.02235174447, 0.0, 0.0, 0.0, -187500.02235174447, -0.302, 0.334, -0.886, 192.0, 0.0, 0.0, 0.0, 0.0, 0.0, 0.0, 0.0, 0.0, 0.0, 1.677706276794458E9, 0.0, 2023-03-01 13:31:16.794
246.0, 28718.169476767718, 15195.408784795856, 0.0, -187500.02235174447, 0.0, 0.0, 0.0, -187500.02235174447, -0.302, 0.334, -0.886, 192.0, 0.0, 0.0, 0.0, 0.0, 0.0, 0.0, 0.0, 0.0, 0.0, 1.67770627679447E9, 0.0, 2023-03-01 13:31:16.794
247.0, 28747.874945148822, 15225.136604921414, 0.0, -187500.02235174447, 0.0, 0.0, 0.0, -187500.02235174447, -0.302, 0.334, -0.886, 192.0, 0.0, 0.0, 0.0, 0.0, 0.0, 0.0, 0.0, 0.0, 0.0, 1.677706276800991E9, 0.0, 2023-03-01 13:31:16.800
248.0, 28737.74960491057, 15196.526372018621, 0.0, -187500.02235174447, 0.0, 0.0, 0.0, -187500.02235174447, -0.302, 0.332, -0.89, 192.0, 246.0, 144.0, 10.0, 96.0, 228.0, 48.0, 0.0, 0.0, 0.0, 1.677706276801E9, 0.0, 2023-03-01 13:31:16.801
249.0, 28717.498924434058, 15166.150351303859, 0.0, -187500.02235174447, 0.0, 0.0, 0.0, -187500.02235174447, -0.302, 0.332, -0.89, 192.0, 0.0, 0.0, 0.0, 0.0, 0.0, 0.0, 0.0, 0.0, 0.0, 1.677706276808168E9, 0.0, 2023-03-01 13:31:16.808
250.0, 28732.96633159713, 15196.951055163272, 0.0, -187500.02235174447, 0.0, 0.0, 0.0, -187500.02235174447, -0.302, 0.332, -0.89, 192.0, 0.0, 0.0, 0.0, 0.0, 0.0, 0.0, 0.0, 0.0, 0.0, 1.677706276816135E9, 0.0, 2023-03-01 13:31:16.816
