%OpenBCI Raw EEG Data
%Number of channels = 8
%Sample Rate = 250 Hz
%Board = OpenBCI_GUI$BoardCytonSerial
Sample Index, EXG Channel 0, EXG Channel 1, EXG Channel 2, EXG Channel 3, EXG Channel 4, EXG Channel 5, EXG Channel 6, EXG Channel 7, Accel Channel 0, Accel Channel 1, Accel Channel 2, Other, Other, Other, Other, Other, Other, Other, Analog Channel 0, Analog Channel 1, Analog Channel 2, Timestamp, Other, Timestamp (Formatted)
35.0, 30131.045595532134, 12104.341340582532, 0.0, -187500.02235174447, 0.0, 0.0, 0.0, -187500.02235174447, 0.0, 0.0, 0.0, 192.0, 0.0, 0.0, 0.0, 0.0, 0.0, 0.0, 0.0, 0.0, 0.0, 1.677705949092731E9, 0.0, 2023-03-01 13:25:49.092
36.0, 30087.593804311015, 12058.162636537867, 0.0, -187500.02235174447, 0.0, 0.0, 0.0, -187500.02235174447, 0.0, 0.0, 0.0, 192.0, 0.0, 0.0, 0.0, 0.0, 0.0, 0.0, 0.0, 0.0, 0.0, 1.677705949092746E9, 0.0, 2023-03-01 13:25:49.092
37.0, 30177.06783736561, 12162.880559310981, 0.0, -187500.02235174447, 0.0, 0.0, 0.0, -187500.02235174447, 0.0, 0.0, 0.0, 192.0, 0.0, 0.0, 0.0, 0.0, 0.0, 0.0, 0.0, 0.0, 0.0, 1.677705949092753E9, 0.0, 2023-03-01 13:25:49.092
38.0, 30230.153230446966, 12217.172946592922, 0.0, -187500.02235174447, 0.0, 0.0, 0.0, -187500.02235174447, 0.0, 0.0, 0.0, 192.0, 0.0, 0.0, 0.0, 0.0, 0.0, 0.0, 0.0, 0.0, 0.0, 1.67770594909276E9, 0.0, 2023-03-01 13:25:49.092
39.0, 30146.222430017286, 12125.799015259627, 0.0, -187500.02235174447, 0.0, 0.0, 0.0, -187500.02235174447, 0.0, 0.0, 0.0, 192.0, 0.0, 0.0, 0.0, 0.0, 0.0, 0.0, 0.0, 0.0, 0.0, 1.677705949092767E9, 0.0, 2023-03-01 13:25:49.092
0.0, 0.0, 0.0, 0.0, 0.0, 0.0, 0.0, 0.0, 0.0, 0.0, 0.0, 0.0, 192.0, 0.0, 0.0, 0.0, 0.0, 0.0, 0.0, 0.0, 0.0, 0.0, 1.677705949163784E9, 0.0, 2023-03-01 13:25:49.163
1.0, 30116.1593337249, 12087.286959563133, 0.0, -187500.02235174447, 0.0, 0.0, 0.0, -187500.02235174447, -0.228, 0.10400000000000001, -0.982, 192.0, 248.0, 224.0, 3.0, 64.0, 225.0, 80.0, 0.0, 0.0, 0.0, 1.677705949176141E9, 0.0, 2023-03-01 13:25:49.176
2.0, 30168.618877961504, 12153.001088261735, 0.0, -187500.02235174447, 0.0, 0.0, 0.0, -187500.02235174447, -0.228, 0.10400000000000001, -0.982, 192.0, 0.0, 0.0, 0.0, 0.0, 0.0, 0.0, 0.0, 0.0, 0.0, 1.677705949183694E9, 0.0, 2023-03-01 13:25:49.183
3.0, 30170.675238451393, 12145.468550380296, 0.0, -187500.02235174447, 0.0, 0.0, 0.0, -187500.02235174447, -0.228, 0.10400000000000001, -0.982, 192.0, 0.0, 0.0, 0.0, 0.0, 0.0, 0.0, 0.0, 0.0, 0.0, 1.677705949183707E9, 0.0, 2023-03-01 13:25:49.183
4.0, 30125.10003150702, 12085.722337451261, 0.0, -187500.02235174447, 0.0, 0.0, 0.0, -187500.02235174447, -0.228, 0.10400000000000001, -0.982, 192.0, 0.0, 0.0, 0.0, 0.0, 0.0, 0.0, 0.0, 0.0, 0.0, 1.677705949190287E9, 0.0, 2023-03-01 13:25:49.190
5.0, 30117.679252347858, 12088.672767719361, 0.0, -187500.02235174447, 0.0, 0.0, 0.0, -187500.02235174447, -0.228, 0.10400000000000001, -0.982, 192.0, 0.0, 0.0, 0.0, 0.0, 0.0, 0.0, 0.0, 0.0, 0.0, 1.6777059491903E9, 0.0, 2023-03-01 13:25:49.190
6.0, 30175.54791874265, 12162.187655232867, 0.0, -187500.02235174447, 0.0, 0.0, 0.0, -187500.02235174447, -0.228, 0.10400000000000001, -0.982, 192.0, 0.0, 0.0, 0.0, 0.0, 0.0, 0.0, 0.0, 0.0, 0.0, 1.677705949198376E9, 0.0, 2023-03-01 13:25:49.198
7.0, 30187.81902644861, 12173.02825129369, 0.0, -187500.02235174447, 0.0, 0.0, 0.0, -187500.02235174447, -0.228, 0.10400000000000001, -0.982, 192.0, 0.0, 0.0, 0.0, 0.0, 0.0, 0.0, 0.0, 0.0, 0.0, 1.677705949198385E9, 0.0, 2023-03-01 13:25:49.198
8.0, 30140.29921773663, 12113.259686620198, 0.0, -187500.02235174447, 0.0, 0.0, 0.0, -187500.02235174447, -0.23800000000000002, 0.10200000000000001, -0.984, 192.0, 248.0, 144.0, 3.0, 48.0, 225.0, 64.0, 0.0, 0.0, 0.0, 1.67770594920563E9, 0.0, 2023-03-01 13:25:49.205
9.0, 30127.603426886017, 12094.126593366456, 0.0, -187500.02235174447, 0.0, 0.0, 0.0, -187500.02235174447, -0.23800000000000002, 0.10200000000000001, -0.984, 192.0, 0.0, 0.0, 0.0, 0.0, 0.0, 0.0, 0.0, 0.0, 0.0, 1.677705949205659E9, 0.0, 2023-03-01 13:25:49.205
10.0, 30180.286488567173, 12155.728001085283, 0.0, -187500.02235174447, 0.0, 0.0, 0.0, -187500.02235174447, -0.23800000000000002, 0.10200000000000001, -0.984, 192.0, 0.0, 0.0, 0.0, 0.0, 0.0, 0.0, 0.0, 0.0, 0.0, 1.677705949213614E9, 0.0, 2023-03-01 13:25:49.213
11.0, 30196.715020741824, 12174.481114683285, 0.0, -187500.02235174447, 0.0, 0.0, 0.0, -187500.02235174447, -0.23800000000000002, 0.10200000000000001, -0.984, 192.0, 0.0, 0.0, 0.0, 0.0, 0.0, 0.0, 0.0, 0.0, 0.0, 1.67770594921363E9, 0.0, 2023-03-01 13:25:49.213
12.0, 30149.0163980742, 12118.400587844919, 0.0, -187500.02235174447, 0.0, 0.0, 0.0, -187500.02235174447, -0.23800000000000002, 0.10200000000000001, -0.984, 192.0, 0.0, 0.0, 0.0, 0.0, 0.0, 0.0, 0.0, 0.0, 0.0, 1.67770594922168E9, 0.0, 2023-03-01 13:25:49.221
13.0, 30118.081583748055, 12082.146058338412, 0.0, -187500.02235174447, 0.0, 0.0, 0.0, -187500.02235174447, -0.23800000000000002, 0.10200000000000001, -0.984, 192.0, 0.0, 0.0, 0.0, 0.0, 0.0, 0.0, 0.0, 0.0, 0.0, 1.677705949221695E9, 0.0, 2023-03-01 13:25:49.221
14.0, 30158.515889467704, 12137.310163654109, 0.0, -187500.02235174447, 0.0, 0.0, 0.0, -187500.02235174447, -0.23800000000000002, 0.10200000000000001, -0.984, 192.0, 0.0, 0.0, 0.0, 0.0, 0.0, 0.0, 0.0, 0.0, 0.0, 1.677705949228222E9, 0.0, 2023-03-01 13:25:49.228
15.0, 30196.625613764005, 12178.593835663061, 0.0, -187500.02235174447, 0.0, 0.0, 0.0, -187500.02235174447, -0.23800000000000002, 0.10200000000000001, -0.984, 192.0, 0.0, 0.0, 0.0, 0.0, 0.0, 0.0, 0.0, 0.0, 0.0, 1.677705949228236E9, 0.0, 2023-03-01 13:25:49.228
16.0, 30168.842395406056, 12134.963230486303, 0.0, -187500.02235174447, 0.0, 0.0, 0.0, -187500.02235174447, -0.23800000000000002, 0.10200000000000001, -0.984, 192.0, 0.0, 0.0, 0.0, 0.0, 0.0, 0.0, 0.0, 0.0, 0.0, 1.677705949235334E9, 0.0, 2023-03-01 13:25:49.235
17.0, 30126.709357107804, 12085.051785117601, 0.0, -187500.02235174447, 0.0, 0.0, 0.0, -187500.02235174447, -0.23800000000000002, 0.10200000000000001, -0.984, 192.0, 0.0, 0.0, 0.0, 0.0, 0.0, 0.0, 0.0, 0.0, 0.0, 1.677705949243303E9, 0.0, 2023-03-01 13:25:49.243
18.0, 30159.231145290276, 12130.582288573061, 0.0, -187500.02235174447, 0.0, 0.0, 0.0, -187500.02235174447, -0.234, 0.106, -0.984, 192.0, 248.0, 176.0, 3.0, 80.0, 225.0, 64.0, 0.0, 0.0, 0.0, 1.677705949243312E9, 0.0, 2023-03-01 13:25:49.243
19.0, 30202.772343489214, 12183.891199098969, 0.0, -187500.02235174447, 0.0, 0.0, 0.0, -187500.02235174447, -0.234, 0.106, -0.984, 192.0, 0.0, 0.0, 0.0, 0.0, 0.0, 0.0, 0.0, 0.0, 0.0, 1.677705949251301E9, 0.0, 2023-03-01 13:25:49.251
20.0, 30176.39728503195, 12143.54630035714, 0.0, -187500.02235174447, 0.0, 0.0, 0.0, -187500.02235174447, -0.234, 0.106, -0.984, 192.0, 0.0, 0.0, 0.0, 0.0, 0.0, 0.0, 0.0, 0.0, 0.0, 1.67770594925132E9, 0.0, 2023-03-01 13:25:49.251
21.0, 30126.374080940972, 12080.648491459906, 0.0, -187500.02235174447, 0.0, 0.0, 0.0, -187500.02235174447, -0.234, 0.106, -0.984, 192.0, 0.0, 0.0, 0.0, 0.0, 0.0, 0.0, 0.0, 0.0, 0.0, 1.677705949257972E9, 0.0, 2023-03-01 13:25:49.257
22.0, 30132.76667985519, 12103.983712671246, 0.0, -187500.02235174447, 0.0, 0.0, 0.0, -187500.02235174447, -0.234, 0.106, -0.984, 192.0, 0.0, 0.0, 0.0, 0.0, 0.0, 0.0, 0.0, 0.0, 0.0, 1.677705949257989E9, 0.0, 2023-03-01 13:25:49.257
23.0, 30178.63245947748, 12166.143914001455, 0.0, -187500.02235174447, 0.0, 0.0, 0.0, -187500.02235174447, -0.234, 0.106, -0.984, 192.0, 0.0, 0.0, 0.0, 0.0, 0.0, 0.0, 0.0, 0.0, 0.0, 1.67770594926591E9, 0.0, 2023-03-01 13:25:49.265
24.0, 30172.038694863168, 12149.69303008235, 0.0, -187500.02235174447, 0.0, 0.0, 0.0, -187500.02235174447, -0.234, 0.106, -0.984, 192.0, 0.0, 0.0, 0.0, 0.0, 0.0, 0.0, 0.0, 0.0, 0.0, 1.677705949265929E9, 0.0, 2023-03-01 13:25:49.265
25.0, 30123.088374506042, 12087.242256074222, 0.0, -187500.02235174447, 0.0, 0.0, 0.0, -187500.02235174447, -0.234, 0.106, -0.984, 192.0, 0.0, 0.0, 0.0, 0.0, 0.0, 0.0, 0.0, 0.0, 0.0, 1.67770594927388E9, 0.0, 2023-03-01 13:25:49.273
26.0, 30131.71614786579, 12103.87195394897, 0.0, -187500.02235174447, 0.0, 0.0, 0.0, -187500.02235174447, -0.234, 0.106, -0.984, 192.0, 0.0, 0.0, 0.0, 0.0, 0.0, 0.0, 0.0, 0.0, 0.0, 1.677705949273894E9, 0.0, 2023-03-01 13:25:49.273
27.0, 30187.30493632614, 12173.207065249333, 0.0, -187500.02235174447, 0.0, 0.0, 0.0, -187500.02235174447, -0.234, 0.106, -0.984, 192.0, 0.0, 0.0, 0.0, 0.0, 0.0, 0.0, 0.0, 0.0, 0.0, 1.677705949281003E9, 0.0, 2023-03-01 13:25:49.281
28.0, 30184.130988613488, 12164.109905256022, 0.0, -187500.02235174447, 0.0, 0.0, 0.0, -187500.02235174447, -0.234, 0.108, -0.986, 192.0, 248.0, 176.0, 3.0, 96.0, 225.0, 48.0, 0.0, 0.0, 0.0, 1.67770594928104E9, 0.0, 2023-03-01 13:25:49.281
29.0, 30132.252589732718, 12099.714529480283, 0.0, -187500.02235174447, 0.0, 0.0, 0.0, -187500.02235174447, -0.234, 0.108, -0.986, 192.0, 0.0, 0.0, 0.0, 0.0, 0.0, 0.0, 0.0, 0.0, 0.0, 1.677705949288618E9, 0.0, 2023-03-01 13:25:49.288
30.0, 30128.318682708585, 12096.607637000996, 0.0, -187500.02235174447, 0.0, 0.0, 0.0, -187500.02235174447, -0.234, 0.108, -0.986, 192.0, 0.0, 0.0, 0.0, 0.0, 0.0, 0.0, 0.0, 0.0, 0.0, 1.677705949288636E9, 0.0, 2023-03-01 13:25:49.288
31.0, 30183.326325813097, 12167.59677739105, 0.0, -187500.02235174447, 0.0, 0.0, 0.0, -187500.02235174447, -0.234, 0.108, -0.986, 192.0, 0.0, 0.0, 0.0, 0.0, 0.0, 0.0, 0.0, 0.0, 0.0, 1.677705949295519E9, 0.0, 2023-03-01 13:25:49.295
32.0, 30193.272852095706, 12174.525818172195, 0.0, -187500.02235174447, 0.0, 0.0, 0.0, -187500.02235174447, -0.234, 0.108, -0.986, 192.0, 0.0, 0.0, 0.0, 0.0, 0.0, 0.0, 0.0, 0.0, 0.0, 1.677705949303484E9, 0.0, 2023-03-01 13:25:49.303
33.0, 30145.30600849462, 12110.845698219026, 0.0, -187500.02235174447, 0.0, 0.0, 0.0, -187500.02235174447, -0.234, 0.108, -0.986, 192.0, 0.0, 0.0, 0.0, 0.0, 0.0, 0.0, 0.0, 0.0, 0.0, 1.677705949303499E9, 0.0, 2023-03-01 13:25:49.303
34.0, 30125.748232096226, 12089.522134008663, 0.0, -187500.02235174447, 0.0, 0.0, 0.0, -187500.02235174447, -0.234, 0.108, -0.986, 192.0, 0.0, 0.0, 0.0, 0.0, 0.0, 0.0, 0.0, 0.0, 0.0, 1.67770594931071E9, 0.0, 2023-03-01 13:25:49.310
35.0, 30170.183500073377, 12148.933070770869, 0.0, -187500.02235174447, 0.0, 0.0, 0.0, -187500.02235174447, -0.234, 0.108, -0.986, 192.0, 0.0, 0.0, 0.0, 0.0, 0.0, 0.0, 0.0, 0.0, 0.0, 1.677705949310724E9, 0.0, 2023-03-01 13:25:49.310
36.0, 30192.423485806405, 12173.36352746052, 0.0, -187500.02235174447, 0.0, 0.0, 0.0, -187500.02235174447, -0.234, 0.108, -0.986, 192.0, 0.0, 0.0, 0.0, 0.0, 0.0, 0.0, 0.0, 0.0, 0.0, 1.67770594931812E9, 0.0, 2023-03-01 13:25:49.318
37.0, 30150.44690971934, 12119.741692512238, 0.0, -187500.02235174447, 0.0, 0.0, 0.0, -187500.02235174447, -0.234, 0.108, -0.986, 192.0, 0.0, 0.0, 0.0, 0.0, 0.0, 0.0, 0.0, 0.0, 0.0, 1.677705949318134E9, 0.0, 2023-03-01 13:25:49.318
38.0, 30117.701604092315, 12081.073174604557, 0.0, -187500.02235174447, 0.0, 0.0, 0.0, -187500.02235174447, -0.232, 0.114, -0.978, 192.0, 248.0, 192.0, 3.0, 144.0, 225.0, 112.0, 0.0, 0.0, 0.0, 1.677705949326199E9, 0.0, 2023-03-01 13:25:49.326
39.0, 30163.030941847675, 12140.2158904333, 0.0, -187500.02235174447, 0.0, 0.0, 0.0, -187500.02235174447, -0.232, 0.114, -0.978, 192.0, 0.0, 0.0, 0.0, 0.0, 0.0, 0.0, 0.0, 0.0, 0.0, 1.677705949326209E9, 0.0, 2023-03-01 13:25:49.326
40.0, 30207.019174935722, 12185.500524699752, 0.0, -187500.02235174447, 0.0, 0.0, 0.0, -187500.02235174447, -0.232, 0.114, -0.978, 192.0, 0.0, 0.0, 0.0, 0.0, 0.0, 0.0, 0.0, 0.0, 0.0, 1.677705949334151E9, 0.0, 2023-03-01 13:25:49.334
41.0, 30175.9726018873, 12142.78634104566, 0.0, -187500.02235174447, 0.0, 0.0, 0.0, -187500.02235174447, -0.232, 0.114, -0.978, 192.0, 0.0, 0.0, 0.0, 0.0, 0.0, 0.0, 0.0, 0.0, 0.0, 1.677705949334176E9, 0.0, 2023-03-01 13:25:49.334
42.0, 30132.34199671054, 12093.098413121512, 0.0, -187500.02235174447, 0.0, 0.0, 0.0, -187500.02235174447, -0.232, 0.114, -0.978, 192.0, 0.0, 0.0, 0.0, 0.0, 0.0, 0.0, 0.0, 0.0, 0.0, 1.677705949340814E9, 0.0, 2023-03-01 13:25:49.340
43.0, 30161.198098802342, 12135.186747930855, 0.0, -187500.02235174447, 0.0, 0.0, 0.0, -187500.02235174447, -0.232, 0.114, -0.978, 192.0, 0.0, 0.0, 0.0, 0.0, 0.0, 0.0, 0.0, 0.0, 0.0, 1.677705949340836E9, 0.0, 2023-03-01 13:25:49.340
44.0, 30205.812180735134, 12188.540361945674, 0.0, -187500.02235174447, 0.0, 0.0, 0.0, -187500.02235174447, -0.232, 0.114, -0.978, 192.0, 0.0, 0.0, 0.0, 0.0, 0.0, 0.0, 0.0, 0.0, 0.0, 1.677705949348873E9, 0.0, 2023-03-01 13:25:49.348
45.0, 30179.057142622132, 12153.090495239556, 0.0, -187500.02235174447, 0.0, 0.0, 0.0, -187500.02235174447, -0.232, 0.114, -0.978, 192.0, 0.0, 0.0, 0.0, 0.0, 0.0, 0.0, 0.0, 0.0, 0.0, 1.677705949348932E9, 0.0, 2023-03-01 13:25:49.348
46.0, 30126.374080940972, 12091.466735776274, 0.0, -187500.02235174447, 0.0, 0.0, 0.0, -187500.02235174447, -0.232, 0.114, -0.978, 192.0, 0.0, 0.0, 0.0, 0.0, 0.0, 0.0, 0.0, 0.0, 0.0, 1.677705949355763E9, 0.0, 2023-03-01 13:25:49.355
47.0, 30140.835659603556, 12117.797090744627, 0.0, -187500.02235174447, 0.0, 0.0, 0.0, -187500.02235174447, -0.232, 0.114, -0.978, 192.0, 0.0, 0.0, 0.0, 0.0, 0.0, 0.0, 0.0, 0.0, 0.0, 1.677705949363923E9, 0.0, 2023-03-01 13:25:49.363
48.0, 30194.613956763027, 12181.544265931161, 0.0, -187500.02235174447, 0.0, 0.0, 0.0, -187500.02235174447, -0.23800000000000002, 0.112, -0.978, 192.0, 248.0, 144.0, 3.0, 128.0, 225.0, 112.0, 0.0, 0.0, 0.0, 1.677705949363936E9, 0.0, 2023-03-01 13:25:49.363
49.0, 30183.706305468837, 12163.126428499989, 0.0, -187500.02235174447, 0.0, 0.0, 0.0, -187500.02235174447, -0.23800000000000002, 0.112, -0.978, 192.0, 0.0, 0.0, 0.0, 0.0, 0.0, 0.0, 0.0, 0.0, 0.0, 1.677705949370377E9, 0.0, 2023-03-01 13:25:49.370
50.0, 30141.0144735592, 12102.642608003927, 0.0, -187500.02235174447, 0.0, 0.0, 0.0, -187500.02235174447, -0.23800000000000002, 0.112, -0.978, 192.0, 0.0, 0.0, 0.0, 0.0, 0.0, 0.0, 0.0, 0.0, 0.0, 1.677705949370386E9, 0.0, 2023-03-01 13:25:49.370
51.0, 30149.619895174492, 12113.326741853565, 0.0, -187500.02235174447, 0.0, 0.0, 0.0, -187500.02235174447, -0.23800000000000002, 0.112, -0.978, 192.0, 0.0, 0.0, 0.0, 0.0, 0.0, 0.0, 0.0, 0.0, 0.0, 1.677705949378436E9, 0.0, 2023-03-01 13:25:49.378
52.0, 30201.319480099617, 12182.013652564723, 0.0, -187500.02235174447, 0.0, 0.0, 0.0, -187500.02235174447, -0.23800000000000002, 0.112, -0.978, 192.0, 0.0, 0.0, 0.0, 0.0, 0.0, 0.0, 0.0, 0.0, 0.0, 1.677705949378455E9, 0.0, 2023-03-01 13:25:49.378
53.0, 30199.79956147666, 12175.799867606149, 0.0, -187500.02235174447, 0.0, 0.0, 0.0, -187500.02235174447, -0.23800000000000002, 0.112, -0.978, 192.0, 0.0, 0.0, 0.0, 0.0, 0.0, 0.0, 0.0, 0.0, 0.0, 1.677705949386436E9, 0.0, 2023-03-01 13:25:49.386
54.0, 30146.311836995108, 12104.654265004905, 0.0, -187500.02235174447, 0.0, 0.0, 0.0, -187500.02235174447, -0.23800000000000002, 0.112, -0.978, 192.0, 0.0, 0.0, 0.0, 0.0, 0.0, 0.0, 0.0, 0.0, 0.0, 1.677705949386455E9, 0.0, 2023-03-01 13:25:49.386
55.0, 30128.229275730762, 12095.937084667336, 0.0, -187500.02235174447, 0.0, 0.0, 0.0, -187500.02235174447, -0.23800000000000002, 0.112, -0.978, 192.0, 0.0, 0.0, 0.0, 0.0, 0.0, 0.0, 0.0, 0.0, 0.0, 1.677705949393096E9, 0.0, 2023-03-01 13:25:49.393
56.0, 30176.93372689888, 12161.472399410297, 0.0, -187500.02235174447, 0.0, 0.0, 0.0, -187500.02235174447, -0.23800000000000002, 0.112, -0.978, 192.0, 0.0, 0.0, 0.0, 0.0, 0.0, 0.0, 0.0, 0.0, 0.0, 1.677705949393115E9, 0.0, 2023-03-01 13:25:49.393
57.0, 30192.199968361852, 12172.715326871315, 0.0, -187500.02235174447, 0.0, 0.0, 0.0, -187500.02235174447, -0.23800000000000002, 0.112, -0.978, 192.0, 0.0, 0.0, 0.0, 0.0, 0.0, 0.0, 0.0, 0.0, 0.0, 1.677705949401042E9, 0.0, 2023-03-01 13:25:49.401
58.0, 30150.15633704142, 12113.863183720492, 0.0, -187500.02235174447, 0.0, 0.0, 0.0, -187500.02235174447, -0.23800000000000002, 0.112, -0.978, 192.0, 0.0, 0.0, 0.0, 0.0, 0.0, 0.0, 0.0, 0.0, 0.0, 1.677705949401058E9, 0.0, 2023-03-01 13:25:49.401
59.0, 30124.027147773166, 12087.73399445224, 0.0, -187500.02235174447, 0.0, 0.0, 0.0, -187500.02235174447, -0.232, 0.116, -0.974, 192.0, 248.0, 192.0, 3.0, 160.0, 225.0, 144.0, 0.0, 0.0, 0.0, 1.677705949409018E9, 0.0, 2023-03-01 13:25:49.409
60.0, 30169.06591285061, 12150.877672538481, 0.0, -187500.02235174447, 0.0, 0.0, 0.0, -187500.02235174447, -0.232, 0.116, -0.974, 192.0, 0.0, 0.0, 0.0, 0.0, 0.0, 0.0, 0.0, 0.0, 0.0, 1.677705949409037E9, 0.0, 2023-03-01 13:25:49.409
61.0, 30212.964738960833, 12197.637521938983, 0.0, -187500.02235174447, 0.0, 0.0, 0.0, -187500.02235174447, -0.232, 0.116, -0.974, 192.0, 0.0, 0.0, 0.0, 0.0, 0.0, 0.0, 0.0, 0.0, 0.0, 1.677705949416073E9, 0.0, 2023-03-01 13:25:49.416
62.0, 30191.64117475047, 12158.298451697643, 0.0, -187500.02235174447, 0.0, 0.0, 0.0, -187500.02235174447, -0.232, 0.116, -0.974, 192.0, 0.0, 0.0, 0.0, 0.0, 0.0, 0.0, 0.0, 0.0, 0.0, 1.677705949416082E9, 0.0, 2023-03-01 13:25:49.416
63.0, 30140.63449390346, 12093.947779410813, 0.0, -187500.02235174447, 0.0, 0.0, 0.0, -187500.02235174447, -0.232, 0.116, -0.974, 192.0, 0.0, 0.0, 0.0, 0.0, 0.0, 0.0, 0.0, 0.0, 0.0, 1.677705949422868E9, 0.0, 2023-03-01 13:25:49.422
64.0, 30155.900735366435, 12121.082797179557, 0.0, -187500.02235174447, 0.0, 0.0, 0.0, -187500.02235174447, -0.232, 0.116, -0.974, 192.0, 0.0, 0.0, 0.0, 0.0, 0.0, 0.0, 0.0, 0.0, 0.0, 1.677705949430838E9, 0.0, 2023-03-01 13:25:49.430
65.0, 30198.659622509436, 12169.250806480743, 0.0, -187500.02235174447, 0.0, 0.0, 0.0, -187500.02235174447, -0.232, 0.116, -0.974, 192.0, 0.0, 0.0, 0.0, 0.0, 0.0, 0.0, 0.0, 0.0, 0.0, 1.677705949430856E9, 0.0, 2023-03-01 13:25:49.430
66.0, 30180.174729844897, 12133.376256629976, 0.0, -187500.02235174447, 0.0, 0.0, 0.0, -187500.02235174447, -0.232, 0.116, -0.974, 192.0, 0.0, 0.0, 0.0, 0.0, 0.0, 0.0, 0.0, 0.0, 0.0, 1.677705949438703E9, 0.0, 2023-03-01 13:25:49.438
67.0, 30142.534392182162, 12081.989596127225, 0.0, -187500.02235174447, 0.0, 0.0, 0.0, -187500.02235174447, -0.232, 0.116, -0.974, 192.0, 0.0, 0.0, 0.0, 0.0, 0.0, 0.0, 0.0, 0.0, 0.0, 1.677705949438719E9, 0.0, 2023-03-01 13:25:49.438
68.0, 30170.78699717367, 12120.769872757182, 0.0, -187500.02235174447, 0.0, 0.0, 0.0, -187500.02235174447, -0.232, 0.116, -0.974, 192.0, 0.0, 0.0, 0.0, 0.0, 0.0, 0.0, 0.0, 0.0, 0.0, 1.677705949445894E9, 0.0, 2023-03-01 13:25:49.445
69.0, 30211.51187557124, 12169.139047758466, 0.0, -187500.02235174447, 0.0, 0.0, 0.0, -187500.02235174447, -0.23600000000000002, 0.106, -0.978, 192.0, 248.0, 160.0, 3.0, 80.0, 225.0, 112.0, 0.0, 0.0, 0.0, 1.677705949445906E9, 0.0, 2023-03-01 13:25:49.445
70.0, 30189.406000304938, 12136.617259575994, 0.0, -187500.02235174447, 0.0, 0.0, 0.0, -187500.02235174447, -0.23600000000000002, 0.106, -0.978, 192.0, 0.0, 0.0, 0.0, 0.0, 0.0, 0.0, 0.0, 0.0, 0.0, 1.677705949453207E9, 0.0, 2023-03-01 13:25:49.453
71.0, 30142.467336948794, 12078.234503058733, 0.0, -187500.02235174447, 0.0, 0.0, 0.0, -187500.02235174447, -0.23600000000000002, 0.106, -0.978, 192.0, 0.0, 0.0, 0.0, 0.0, 0.0, 0.0, 0.0, 0.0, 0.0, 1.677705949453219E9, 0.0, 2023-03-01 13:25:49.453
72.0, 30153.419691731895, 12099.043977146624, 0.0, -187500.02235174447, 0.0, 0.0, 0.0, -187500.02235174447, -0.23600000000000002, 0.106, -0.978, 192.0, 0.0, 0.0, 0.0, 0.0, 0.0, 0.0, 0.0, 0.0, 0.0, 1.677705949461347E9, 0.0, 2023-03-01 13:25:49.461
73.0, 30204.158151645443, 12162.344117444054, 0.0, -187500.02235174447, 0.0, 0.0, 0.0, -187500.02235174447, -0.23600000000000002, 0.106, -0.978, 192.0, 0.0, 0.0, 0.0, 0.0, 0.0, 0.0, 0.0, 0.0, 0.0, 1.677705949461356E9, 0.0, 2023-03-01 13:25:49.461
74.0, 30198.0784771536, 12149.335402171064, 0.0, -187500.02235174447, 0.0, 0.0, 0.0, -187500.02235174447, -0.23600000000000002, 0.106, -0.978, 192.0, 0.0, 0.0, 0.0, 0.0, 0.0, 0.0, 0.0, 0.0, 0.0, 1.677705949469322E9, 0.0, 2023-03-01 13:25:49.469
75.0, 30150.960999841813, 12087.398718285409, 0.0, -187500.02235174447, 0.0, 0.0, 0.0, -187500.02235174447, -0.23600000000000002, 0.106, -0.978, 192.0, 0.0, 0.0, 0.0, 0.0, 0.0, 0.0, 0.0, 0.0, 0.0, 1.677705949469338E9, 0.0, 2023-03-01 13:25:49.469
76.0, 30156.168956299898, 12096.205305600799, 0.0, -187500.02235174447, 0.0, 0.0, 0.0, -187500.02235174447, -0.23600000000000002, 0.106, -0.978, 192.0, 0.0, 0.0, 0.0, 0.0, 0.0, 0.0, 0.0, 0.0, 0.0, 1.677705949476053E9, 0.0, 2023-03-01 13:25:49.476
77.0, 30207.488561569284, 12163.752277344738, 0.0, -187500.02235174447, 0.0, 0.0, 0.0, -187500.02235174447, -0.23600000000000002, 0.106, -0.978, 192.0, 0.0, 0.0, 0.0, 0.0, 0.0, 0.0, 0.0, 0.0, 0.0, 1.677705949476122E9, 0.0, 2023-03-01 13:25:49.476
78.0, 30210.371936604017, 12162.657041866427, 0.0, -187500.02235174447, 0.0, 0.0, 0.0, -187500.02235174447, -0.23600000000000002, 0.106, -0.978, 192.0, 0.0, 0.0, 0.0, 0.0, 0.0, 0.0, 0.0, 0.0, 0.0, 1.677705949483072E9, 0.0, 2023-03-01 13:25:49.483
79.0, 30160.639305190958, 12097.836982946037, 0.0, -187500.02235174447, 0.0, 0.0, 0.0, -187500.02235174447, -0.234, 0.106, -0.976, 192.0, 248.0, 176.0, 3.0, 80.0, 225.0, 128.0, 0.0, 0.0, 0.0, 1.677705949490974E9, 0.0, 2023-03-01 13:25:49.490
80.0, 30145.52952593917, 12081.96724438277, 0.0, -187500.02235174447, 0.0, 0.0, 0.0, -187500.02235174447, -0.234, 0.106, -0.976, 192.0, 0.0, 0.0, 0.0, 0.0, 0.0, 0.0, 0.0, 0.0, 0.0, 1.677705949490987E9, 0.0, 2023-03-01 13:25:49.490
81.0, 30201.811218477636, 12149.156588215423, 0.0, -187500.02235174447, 0.0, 0.0, 0.0, -187500.02235174447, -0.234, 0.106, -0.976, 192.0, 0.0, 0.0, 0.0, 0.0, 0.0, 0.0, 0.0, 0.0, 0.0, 1.677705949499074E9, 0.0, 2023-03-01 13:25:49.499
82.0, 30217.300977385163, 12163.707573855827, 0.0, -187500.02235174447, 0.0, 0.0, 0.0, -187500.02235174447, -0.234, 0.106, -0.976, 192.0, 0.0, 0.0, 0.0, 0.0, 0.0, 0.0, 0.0, 0.0, 0.0, 1.677705949499086E9, 0.0, 2023-03-01 13:25:49.499
83.0, 30168.574174472593, 12102.083814392545, 0.0, -187500.02235174447, 0.0, 0.0, 0.0, -187500.02235174447, -0.234, 0.106, -0.976, 192.0, 0.0, 0.0, 0.0, 0.0, 0.0, 0.0, 0.0, 0.0, 0.0, 1.677705949505674E9, 0.0, 2023-03-01 13:25:49.505
84.0, 30139.29338923614, 12073.361822767476, 0.0, -187500.02235174447, 0.0, 0.0, 0.0, -187500.02235174447, -0.234, 0.106, -0.976, 192.0, 0.0, 0.0, 0.0, 0.0, 0.0, 0.0, 0.0, 0.0, 0.0, 1.677705949505694E9, 0.0, 2023-03-01 13:25:49.505
85.0, 30182.49931126825, 12132.839814763049, 0.0, -187500.02235174447, 0.0, 0.0, 0.0, -187500.02235174447, -0.234, 0.106, -0.976, 192.0, 0.0, 0.0, 0.0, 0.0, 0.0, 0.0, 0.0, 0.0, 0.0, 1.677705949513512E9, 0.0, 2023-03-01 13:25:49.513
86.0, 30212.093020927077, 12167.149742501944, 0.0, -187500.02235174447, 0.0, 0.0, 0.0, -187500.02235174447, -0.234, 0.106, -0.976, 192.0, 0.0, 0.0, 0.0, 0.0, 0.0, 0.0, 0.0, 0.0, 0.0, 1.677705949513531E9, 0.0, 2023-03-01 13:25:49.513
87.0, 30172.284564052174, 12115.07017792108, 0.0, -187500.02235174447, 0.0, 0.0, 0.0, -187500.02235174447, -0.234, 0.106, -0.976, 192.0, 0.0, 0.0, 0.0, 0.0, 0.0, 0.0, 0.0, 0.0, 0.0, 1.677705949521565E9, 0.0, 2023-03-01 13:25:49.521
88.0, 30135.985331056756, 12070.970186110759, 0.0, -187500.02235174447, 0.0, 0.0, 0.0, -187500.02235174447, -0.234, 0.106, -0.976, 192.0, 0.0, 0.0, 0.0, 0.0, 0.0, 0.0, 0.0, 0.0, 0.0, 1.677705949521582E9, 0.0, 2023-03-01 13:25:49.521
89.0, 30180.30884031163, 12128.660038549906, 0.0, -187500.02235174447, 0.0, 0.0, 0.0, -187500.02235174447, -0.234, 0.10200000000000001, -0.98, 192.0, 248.0, 176.0, 3.0, 48.0, 225.0, 96.0, 0.0, 0.0, 0.0, 1.677705949528787E9, 0.0, 2023-03-01 13:25:49.528
90.0, 30228.253332168264, 12180.583140919583, 0.0, -187500.02235174447, 0.0, 0.0, 0.0, -187500.02235174447, -0.234, 0.10200000000000001, -0.98, 192.0, 0.0, 0.0, 0.0, 0.0, 0.0, 0.0, 0.0, 0.0, 0.0, 1.6777059495288E9, 0.0, 2023-03-01 13:25:49.528
91.0, 30197.609090520036, 12137.868957265491, 0.0, -187500.02235174447, 0.0, 0.0, 0.0, -187500.02235174447, -0.234, 0.10200000000000001, -0.98, 192.0, 0.0, 0.0, 0.0, 0.0, 0.0, 0.0, 0.0, 0.0, 0.0, 1.677705949537602E9, 0.0, 2023-03-01 13:25:49.537
92.0, 30150.223392274787, 12081.989596127225, 0.0, -187500.02235174447, 0.0, 0.0, 0.0, -187500.02235174447, -0.234, 0.10200000000000001, -0.98, 192.0, 0.0, 0.0, 0.0, 0.0, 0.0, 0.0, 0.0, 0.0, 0.0, 1.677705949537615E9, 0.0, 2023-03-01 13:25:49.537
93.0, 30167.903622138932, 12112.58913428654, 0.0, -187500.02235174447, 0.0, 0.0, 0.0, -187500.02235174447, -0.234, 0.10200000000000001, -0.98, 192.0, 0.0, 0.0, 0.0, 0.0, 0.0, 0.0, 0.0, 0.0, 0.0, 1.67770594954374E9, 0.0, 2023-03-01 13:25:49.543
94.0, 30213.590587805582, 12165.02632677869, 0.0, -187500.02235174447, 0.0, 0.0, 0.0, -187500.02235174447, -0.234, 0.10200000000000001, -0.98, 192.0, 0.0, 0.0, 0.0, 0.0, 0.0, 0.0, 0.0, 0.0, 0.0, 1.677705949551366E9, 0.0, 2023-03-01 13:25:49.551
95.0, 30195.485674796782, 12134.940878741847, 0.0, -187500.02235174447, 0.0, 0.0, 0.0, -187500.02235174447, -0.234, 0.10200000000000001, -0.98, 192.0, 0.0, 0.0, 0.0, 0.0, 0.0, 0.0, 0.0, 0.0, 0.0, 1.677705949551383E9, 0.0, 2023-03-01 13:25:49.551
96.0, 30143.964903827302, 12068.10916282048, 0.0, -187500.02235174447, 0.0, 0.0, 0.0, -187500.02235174447, -0.234, 0.10200000000000001, -0.98, 192.0, 0.0, 0.0, 0.0, 0.0, 0.0, 0.0, 0.0, 0.0, 0.0, 1.677705949557891E9, 0.0, 2023-03-01 13:25:49.557
97.0, 30159.856994135025, 12090.572665998063, 0.0, -187500.02235174447, 0.0, 0.0, 0.0, -187500.02235174447, -0.234, 0.10200000000000001, -0.98, 192.0, 0.0, 0.0, 0.0, 0.0, 0.0, 0.0, 0.0, 0.0, 0.0, 1.67770594955791E9, 0.0, 2023-03-01 13:25:49.557
98.0, 30219.782021019702, 12162.858207566525, 0.0, -187500.02235174447, 0.0, 0.0, 0.0, -187500.02235174447, -0.234, 0.10200000000000001, -0.98, 192.0, 0.0, 0.0, 0.0, 0.0, 0.0, 0.0, 0.0, 0.0, 0.0, 1.677705949565924E9, 0.0, 2023-03-01 13:25:49.565
99.0, 30221.59251232058, 12153.73869582876, 0.0, -187500.02235174447, 0.0, 0.0, 0.0, -187500.02235174447, -0.23, 0.098, -0.978, 192.0, 248.0, 208.0, 3.0, 16.0, 225.0, 112.0, 0.0, 0.0, 0.0, 1.677705949565941E9, 0.0, 2023-03-01 13:25:49.565
100.0, 30168.1718430724, 12084.604750228495, 0.0, -187500.02235174447, 0.0, 0.0, 0.0, -187500.02235174447, -0.23, 0.098, -0.978, 192.0, 0.0, 0.0, 0.0, 0.0, 0.0, 0.0, 0.0, 0.0, 0.0, 1.677705949573848E9, 0.0, 2023-03-01 13:25:49.573
101.0, 30161.06398833561, 12085.275302562155, 0.0, -187500.02235174447, 0.0, 0.0, 0.0, -187500.02235174447, -0.23, 0.098, -0.978, 192.0, 0.0, 0.0, 0.0, 0.0, 0.0, 0.0, 0.0, 0.0, 0.0, 1.677705949573861E9, 0.0, 2023-03-01 13:25:49.573
102.0, 30210.26017788174, 12149.35775391552, 0.0, -187500.02235174447, 0.0, 0.0, 0.0, -187500.02235174447, -0.23, 0.098, -0.978, 192.0, 0.0, 0.0, 0.0, 0.0, 0.0, 0.0, 0.0, 0.0, 0.0, 1.677705949580999E9, 0.0, 2023-03-01 13:25:49.580
103.0, 30213.255311638753, 12146.1167509695, 0.0, -187500.02235174447, 0.0, 0.0, 0.0, -187500.02235174447, -0.23, 0.098, -0.978, 192.0, 0.0, 0.0, 0.0, 0.0, 0.0, 0.0, 0.0, 0.0, 0.0, 1.677705949581008E9, 0.0, 2023-03-01 13:25:49.581
104.0, 30165.087302337564, 12083.464811261274, 0.0, -187500.02235174447, 0.0, 0.0, 0.0, -187500.02235174447, -0.23, 0.098, -0.978, 192.0, 0.0, 0.0, 0.0, 0.0, 0.0, 0.0, 0.0, 0.0, 0.0, 1.677705949588478E9, 0.0, 2023-03-01 13:25:49.588
105.0, 30148.8152323741, 12069.71848842126, 0.0, -187500.02235174447, 0.0, 0.0, 0.0, -187500.02235174447, -0.23, 0.098, -0.978, 192.0, 0.0, 0.0, 0.0, 0.0, 0.0, 0.0, 0.0, 0.0, 0.0, 1.6777059495885E9, 0.0, 2023-03-01 13:25:49.588
106.0, 30199.35252658755, 12134.292678152642, 0.0, -187500.02235174447, 0.0, 0.0, 0.0, -187500.02235174447, -0.23, 0.098, -0.978, 192.0, 0.0, 0.0, 0.0, 0.0, 0.0, 0.0, 0.0, 0.0, 0.0, 1.677705949596509E9, 0.0, 2023-03-01 13:25:49.596
107.0, 30219.1338204305, 12152.554053372629, 0.0, -187500.02235174447, 0.0, 0.0, 0.0, -187500.02235174447, -0.23, 0.098, -0.978, 192.0, 0.0, 0.0, 0.0, 0.0, 0.0, 0.0, 0.0, 0.0, 0.0, 1.677705949596525E9, 0.0, 2023-03-01 13:25:49.596
108.0, 30173.715075697313, 12091.354977053998, 0.0, -187500.02235174447, 0.0, 0.0, 0.0, -187500.02235174447, -0.23, 0.098, -0.978, 192.0, 0.0, 0.0, 0.0, 0.0, 0.0, 0.0, 0.0, 0.0, 0.0, 1.677705949603549E9, 0.0, 2023-03-01 13:25:49.603
109.0, 30139.9639415698, 12057.179159781834, 0.0, -187500.02235174447, 0.0, 0.0, 0.0, -187500.02235174447, -0.23600000000000002, 0.094, -0.978, 192.0, 248.0, 160.0, 2.0, 240.0, 225.0, 112.0, 0.0, 0.0, 0.0, 1.677705949610721E9, 0.0, 2023-03-01 13:25:49.610
110.0, 30183.885119424478, 12116.903020966414, 0.0, -187500.02235174447, 0.0, 0.0, 0.0, -187500.02235174447, -0.23600000000000002, 0.094, -0.978, 192.0, 0.0, 0.0, 0.0, 0.0, 0.0, 0.0, 0.0, 0.0, 0.0, 1.677705949610766E9, 0.0, 2023-03-01 13:25:49.610
111.0, 30215.959872717845, 12152.710515583816, 0.0, -187500.02235174447, 0.0, 0.0, 0.0, -187500.02235174447, -0.23600000000000002, 0.094, -0.978, 192.0, 0.0, 0.0, 0.0, 0.0, 0.0, 0.0, 0.0, 0.0, 0.0, 1.677705949618201E9, 0.0, 2023-03-01 13:25:49.618
112.0, 30188.154302615443, 12105.30246559411, 0.0, -187500.02235174447, 0.0, 0.0, 0.0, -187500.02235174447, -0.23600000000000002, 0.094, -0.978, 192.0, 0.0, 0.0, 0.0, 0.0, 0.0, 0.0, 0.0, 0.0, 0.0, 1.677705949618213E9, 0.0, 2023-03-01 13:25:49.618
113.0, 30156.25836327772, 12063.884683118426, 0.0, -187500.02235174447, 0.0, 0.0, 0.0, -187500.02235174447, -0.23600000000000002, 0.094, -0.978, 192.0, 0.0, 0.0, 0.0, 0.0, 0.0, 0.0, 0.0, 0.0, 0.0, 1.677705949626171E9, 0.0, 2023-03-01 13:25:49.626
114.0, 30190.814160205624, 12111.583305786051, 0.0, -187500.02235174447, 0.0, 0.0, 0.0, -187500.02235174447, -0.23600000000000002, 0.094, -0.978, 192.0, 0.0, 0.0, 0.0, 0.0, 0.0, 0.0, 0.0, 0.0, 0.0, 1.677705949626181E9, 0.0, 2023-03-01 13:25:49.626
115.0, 30231.583742092105, 12160.019536020702, 0.0, -187500.02235174447, 0.0, 0.0, 0.0, -187500.02235174447, -0.23600000000000002, 0.094, -0.978, 192.0, 0.0, 0.0, 0.0, 0.0, 0.0, 0.0, 0.0, 0.0, 0.0, 1.677705949634244E9, 0.0, 2023-03-01 13:25:49.634
116.0, 30201.297128355163, 12117.908849466903, 0.0, -187500.02235174447, 0.0, 0.0, 0.0, -187500.02235174447, -0.23600000000000002, 0.094, -0.978, 192.0, 0.0, 0.0, 0.0, 0.0, 0.0, 0.0, 0.0, 0.0, 0.0, 1.677705949634261E9, 0.0, 2023-03-01 13:25:49.634
117.0, 30155.900735366435, 12060.420162727853, 0.0, -187500.02235174447, 0.0, 0.0, 0.0, -187500.02235174447, -0.23600000000000002, 0.094, -0.978, 192.0, 0.0, 0.0, 0.0, 0.0, 0.0, 0.0, 0.0, 0.0, 0.0, 1.67770594964065E9, 0.0, 2023-03-01 13:25:49.640
118.0, 30181.001744389745, 12096.384119556442, 0.0, -187500.02235174447, 0.0, 0.0, 0.0, -187500.02235174447, -0.23600000000000002, 0.094, -0.978, 192.0, 0.0, 0.0, 0.0, 0.0, 0.0, 0.0, 0.0, 0.0, 0.0, 1.677705949640665E9, 0.0, 2023-03-01 13:25:49.640
119.0, 30224.386480377496, 12155.370373173997, 0.0, -187500.02235174447, 0.0, 0.0, 0.0, -187500.02235174447, -0.23600000000000002, 0.096, -0.986, 192.0, 248.0, 160.0, 3.0, 0.0, 225.0, 48.0, 0.0, 0.0, 0.0, 1.677705949648813E9, 0.0, 2023-03-01 13:25:49.648
120.0, 30206.34862260206, 12128.794149016638, 0.0, -187500.02235174447, 0.0, 0.0, 0.0, -187500.02235174447, -0.23600000000000002, 0.096, -0.986, 192.0, 0.0, 0.0, 0.0, 0.0, 0.0, 0.0, 0.0, 0.0, 0.0, 1.677705949648829E9, 0.0, 2023-03-01 13:25:49.648
121.0, 30159.25349703473, 12067.170389553356, 0.0, -187500.02235174447, 0.0, 0.0, 0.0, -187500.02235174447, -0.23600000000000002, 0.096, -0.986, 192.0, 0.0, 0.0, 0.0, 0.0, 0.0, 0.0, 0.0, 0.0, 0.0, 1.677705949656779E9, 0.0, 2023-03-01 13:25:49.656
122.0, 30165.579040715584, 12083.062479861079, 0.0, -187500.02235174447, 0.0, 0.0, 0.0, -187500.02235174447, -0.23600000000000002, 0.096, -0.986, 192.0, 0.0, 0.0, 0.0, 0.0, 0.0, 0.0, 0.0, 0.0, 0.0, 1.677705949656791E9, 0.0, 2023-03-01 13:25:49.656
123.0, 30219.849076253067, 12148.329573670575, 0.0, -187500.02235174447, 0.0, 0.0, 0.0, -187500.02235174447, -0.23600000000000002, 0.096, -0.986, 192.0, 0.0, 0.0, 0.0, 0.0, 0.0, 0.0, 0.0, 0.0, 0.0, 1.677705949664027E9, 0.0, 2023-03-01 13:25:49.664
124.0, 30215.758707017747, 12136.170224686888, 0.0, -187500.02235174447, 0.0, 0.0, 0.0, -187500.02235174447, -0.23600000000000002, 0.096, -0.986, 192.0, 0.0, 0.0, 0.0, 0.0, 0.0, 0.0, 0.0, 0.0, 0.0, 1.677705949664036E9, 0.0, 2023-03-01 13:25:49.664
125.0, 30164.68497093737, 12070.478447732741, 0.0, -187500.02235174447, 0.0, 0.0, 0.0, -187500.02235174447, -0.23600000000000002, 0.096, -0.986, 192.0, 0.0, 0.0, 0.0, 0.0, 0.0, 0.0, 0.0, 0.0, 0.0, 1.677705949670324E9, 0.0, 2023-03-01 13:25:49.670
126.0, 30161.131043568977, 12072.91478787837, 0.0, -187500.02235174447, 0.0, 0.0, 0.0, -187500.02235174447, -0.23600000000000002, 0.096, -0.986, 192.0, 0.0, 0.0, 0.0, 0.0, 0.0, 0.0, 0.0, 0.0, 0.0, 1.677705949678548E9, 0.0, 2023-03-01 13:25:49.678
127.0, 30216.339852373585, 12143.63570733496, 0.0, -187500.02235174447, 0.0, 0.0, 0.0, -187500.02235174447, -0.23600000000000002, 0.096, -0.986, 192.0, 0.0, 0.0, 0.0, 0.0, 0.0, 0.0, 0.0, 0.0, 0.0, 1.677705949678575E9, 0.0, 2023-03-01 13:25:49.678
128.0, 30224.989977477788, 12147.413152147908, 0.0, -187500.02235174447, 0.0, 0.0, 0.0, -187500.02235174447, -0.23600000000000002, 0.096, -0.986, 192.0, 0.0, 0.0, 0.0, 0.0, 0.0, 0.0, 0.0, 0.0, 0.0, 1.677705949686485E9, 0.0, 2023-03-01 13:25:49.686
129.0, 30175.123235598, 12084.738860695226, 0.0, -187500.02235174447, 0.0, 0.0, 0.0, -187500.02235174447, -0.228, 0.096, -0.98, 192.0, 248.0, 224.0, 3.0, 0.0, 225.0, 96.0, 0.0, 0.0, 0.0, 1.677705949686502E9, 0.0, 2023-03-01 13:25:49.686
130.0, 30153.68791266536, 12068.153866309389, 0.0, -187500.02235174447, 0.0, 0.0, 0.0, -187500.02235174447, -0.228, 0.096, -0.98, 192.0, 0.0, 0.0, 0.0, 0.0, 0.0, 0.0, 0.0, 0.0, 0.0, 1.677705949694897E9, 0.0, 2023-03-01 13:25:49.694
131.0, 30201.78886673318, 12133.219794418788, 0.0, -187500.02235174447, 0.0, 0.0, 0.0, -187500.02235174447, -0.228, 0.096, -0.98, 192.0, 0.0, 0.0, 0.0, 0.0, 0.0, 0.0, 0.0, 0.0, 0.0, 1.67770594969491E9, 0.0, 2023-03-01 13:25:49.694
132.0, 30226.55459958966, 12156.242091207754, 0.0, -187500.02235174447, 0.0, 0.0, 0.0, -187500.02235174447, -0.228, 0.096, -0.98, 192.0, 0.0, 0.0, 0.0, 0.0, 0.0, 0.0, 0.0, 0.0, 0.0, 1.677705949701039E9, 0.0, 2023-03-01 13:25:49.701
133.0, 30184.622726991503, 12098.351073068508, 0.0, -187500.02235174447, 0.0, 0.0, 0.0, -187500.02235174447, -0.228, 0.096, -0.98, 192.0, 0.0, 0.0, 0.0, 0.0, 0.0, 0.0, 0.0, 0.0, 0.0, 1.677705949701049E9, 0.0, 2023-03-01 13:25:49.701
134.0, 30150.782185886168, 12059.190816782811, 0.0, -187500.02235174447, 0.0, 0.0, 0.0, -187500.02235174447, -0.228, 0.096, -0.98, 192.0, 0.0, 0.0, 0.0, 0.0, 0.0, 0.0, 0.0, 0.0, 0.0, 1.677705949709067E9, 0.0, 2023-03-01 13:25:49.709
135.0, 30191.618823006014, 12114.712550009794, 0.0, -187500.02235174447, 0.0, 0.0, 0.0, -187500.02235174447, -0.228, 0.096, -0.98, 192.0, 0.0, 0.0, 0.0, 0.0, 0.0, 0.0, 0.0, 0.0, 0.0, 1.677705949709076E9, 0.0, 2023-03-01 13:25:49.709
136.0, 30232.50016361477, 12159.125466242489, 0.0, -187500.02235174447, 0.0, 0.0, 0.0, -187500.02235174447, -0.228, 0.096, -0.98, 192.0, 0.0, 0.0, 0.0, 0.0, 0.0, 0.0, 0.0, 0.0, 0.0, 1.67770594971613E9, 0.0, 2023-03-01 13:25:49.716
137.0, 30215.714003528836, 12128.72709378327, 0.0, -187500.02235174447, 0.0, 0.0, 0.0, -187500.02235174447, -0.228, 0.096, -0.98, 192.0, 0.0, 0.0, 0.0, 0.0, 0.0, 0.0, 0.0, 0.0, 0.0, 1.677705949716149E9, 0.0, 2023-03-01 13:25:49.716
138.0, 30185.919128169913, 12089.075099119556, 0.0, -187500.02235174447, 0.0, 0.0, 0.0, -187500.02235174447, -0.228, 0.096, -0.98, 192.0, 0.0, 0.0, 0.0, 0.0, 0.0, 0.0, 0.0, 0.0, 0.0, 1.677705949723641E9, 0.0, 2023-03-01 13:25:49.723
139.0, 30198.458456809338, 12111.1586226414, 0.0, -187500.02235174447, 0.0, 0.0, 0.0, -187500.02235174447, -0.228, 0.096, -0.98, 192.0, 0.0, 0.0, 0.0, 0.0, 0.0, 0.0, 0.0, 0.0, 0.0, 1.677705949723657E9, 0.0, 2023-03-01 13:25:49.723
140.0, 30217.83741925209, 12138.83008227707, 0.0, -187500.02235174447, 0.0, 0.0, 0.0, -187500.02235174447, -0.224, 0.098, -0.978, 192.0, 249.0, 0.0, 3.0, 16.0, 225.0, 112.0, 0.0, 0.0, 0.0, 1.677705949730834E9, 0.0, 2023-03-01 13:25:49.730
141.0, 30196.960889930833, 12100.765061469683, 0.0, -187500.02235174447, 0.0, 0.0, 0.0, -187500.02235174447, -0.224, 0.098, -0.978, 192.0, 0.0, 0.0, 0.0, 0.0, 0.0, 0.0, 0.0, 0.0, 0.0, 1.677705949738641E9, 0.0, 2023-03-01 13:25:49.738
142.0, 30160.013456346212, 12049.28899398911, 0.0, -187500.02235174447, 0.0, 0.0, 0.0, -187500.02235174447, -0.224, 0.098, -0.978, 192.0, 0.0, 0.0, 0.0, 0.0, 0.0, 0.0, 0.0, 0.0, 0.0, 1.677705949738686E9, 0.0, 2023-03-01 13:25:49.738
143.0, 30175.68202920938, 12073.853561145492, 0.0, -187500.02235174447, 0.0, 0.0, 0.0, -187500.02235174447, -0.224, 0.098, -0.978, 192.0, 0.0, 0.0, 0.0, 0.0, 0.0, 0.0, 0.0, 0.0, 0.0, 1.677705949745694E9, 0.0, 2023-03-01 13:25:49.745
144.0, 30235.584704349603, 12140.886442766958, 0.0, -187500.02235174447, 0.0, 0.0, 0.0, -187500.02235174447, -0.224, 0.098, -0.978, 192.0, 0.0, 0.0, 0.0, 0.0, 0.0, 0.0, 0.0, 0.0, 0.0, 1.677705949745703E9, 0.0, 2023-03-01 13:25:49.745
145.0, 30228.454497868363, 12117.685332022349, 0.0, -187500.02235174447, 0.0, 0.0, 0.0, -187500.02235174447, -0.224, 0.098, -0.978, 192.0, 0.0, 0.0, 0.0, 0.0, 0.0, 0.0, 0.0, 0.0, 0.0, 1.677705949753348E9, 0.0, 2023-03-01 13:25:49.753
146.0, 30173.469206508307, 12044.751589864683, 0.0, -187500.02235174447, 0.0, 0.0, 0.0, -187500.02235174447, -0.224, 0.098, -0.978, 192.0, 0.0, 0.0, 0.0, 0.0, 0.0, 0.0, 0.0, 0.0, 0.0, 1.677705949753372E9, 0.0, 2023-03-01 13:25:49.753
147.0, 30178.20777633283, 12052.708810890772, 0.0, -187500.02235174447, 0.0, 0.0, 0.0, -187500.02235174447, -0.224, 0.098, -0.978, 192.0, 0.0, 0.0, 0.0, 0.0, 0.0, 0.0, 0.0, 0.0, 0.0, 1.677705949761251E9, 0.0, 2023-03-01 13:25:49.761
148.0, 30233.55069560417, 12119.58523030105, 0.0, -187500.02235174447, 0.0, 0.0, 0.0, -187500.02235174447, -0.224, 0.098, -0.978, 192.0, 0.0, 0.0, 0.0, 0.0, 0.0, 0.0, 0.0, 0.0, 0.0, 1.677705949761267E9, 0.0, 2023-03-01 13:25:49.761
149.0, 30243.005483508765, 12117.39475934443, 0.0, -187500.02235174447, 0.0, 0.0, 0.0, -187500.02235174447, -0.224, 0.098, -0.978, 192.0, 0.0, 0.0, 0.0, 0.0, 0.0, 0.0, 0.0, 0.0, 0.0, 1.677705949769643E9, 0.0, 2023-03-01 13:25:49.769
150.0, 30201.118314399522, 12056.799180126094, 0.0, -187500.02235174447, 0.0, 0.0, 0.0, -187500.02235174447, -0.222, 0.10200000000000001, -0.982, 192.0, 249.0, 16.0, 3.0, 48.0, 225.0, 80.0, 0.0, 0.0, 0.0, 1.677705949769659E9, 0.0, 2023-03-01 13:25:49.769
151.0, 30191.73058172829, 12052.731162635228, 0.0, -187500.02235174447, 0.0, 0.0, 0.0, -187500.02235174447, -0.222, 0.10200000000000001, -0.982, 192.0, 0.0, 0.0, 0.0, 0.0, 0.0, 0.0, 0.0, 0.0, 0.0, 1.677705949776035E9, 0.0, 2023-03-01 13:25:49.776
152.0, 30242.55844861966, 12118.132366911455, 0.0, -187500.02235174447, 0.0, 0.0, 0.0, -187500.02235174447, -0.222, 0.10200000000000001, -0.982, 192.0, 0.0, 0.0, 0.0, 0.0, 0.0, 0.0, 0.0, 0.0, 0.0, 1.677705949776046E9, 0.0, 2023-03-01 13:25:49.776
153.0, 30256.729454604323, 12130.135253683955, 0.0, -187500.02235174447, 0.0, 0.0, 0.0, -187500.02235174447, -0.222, 0.10200000000000001, -0.982, 192.0, 0.0, 0.0, 0.0, 0.0, 0.0, 0.0, 0.0, 0.0, 0.0, 1.677705949784039E9, 0.0, 2023-03-01 13:25:49.784
154.0, 30209.70138427036, 12068.131514564933, 0.0, -187500.02235174447, 0.0, 0.0, 0.0, -187500.02235174447, -0.222, 0.10200000000000001, -0.982, 192.0, 0.0, 0.0, 0.0, 0.0, 0.0, 0.0, 0.0, 0.0, 0.0, 1.677705949784052E9, 0.0, 2023-03-01 13:25:49.784
155.0, 30187.39434330396, 12044.438665442309, 0.0, -187500.02235174447, 0.0, 0.0, 0.0, -187500.02235174447, -0.222, 0.10200000000000001, -0.982, 192.0, 0.0, 0.0, 0.0, 0.0, 0.0, 0.0, 0.0, 0.0, 0.0, 1.677705949790871E9, 0.0, 2023-03-01 13:25:49.790
156.0, 30232.433108381407, 12107.403529572908, 0.0, -187500.02235174447, 0.0, 0.0, 0.0, -187500.02235174447, -0.222, 0.10200000000000001, -0.982, 192.0, 0.0, 0.0, 0.0, 0.0, 0.0, 0.0, 0.0, 0.0, 0.0, 1.677705949798961E9, 0.0, 2023-03-01 13:25:49.798
157.0, 30255.187184236907, 12131.431654862363, 0.0, -187500.02235174447, 0.0, 0.0, 0.0, -187500.02235174447, -0.222, 0.10200000000000001, -0.982, 192.0, 0.0, 0.0, 0.0, 0.0, 0.0, 0.0, 0.0, 0.0, 0.0, 1.677705949798977E9, 0.0, 2023-03-01 13:25:49.798
158.0, 30213.657643038947, 12072.512456478174, 0.0, -187500.02235174447, 0.0, 0.0, 0.0, -187500.02235174447, -0.222, 0.10200000000000001, -0.982, 192.0, 0.0, 0.0, 0.0, 0.0, 0.0, 0.0, 0.0, 0.0, 0.0, 1.677705949805718E9, 0.0, 2023-03-01 13:25:49.805
159.0, 30178.54305249966, 12034.425083926331, 0.0, -187500.02235174447, 0.0, 0.0, 0.0, -187500.02235174447, -0.222, 0.10200000000000001, -0.982, 192.0, 0.0, 0.0, 0.0, 0.0, 0.0, 0.0, 0.0, 0.0, 0.0, 1.677705949805763E9, 0.0, 2023-03-01 13:25:49.805
160.0, 30220.519628586728, 12092.651378232405, 0.0, -187500.02235174447, 0.0, 0.0, 0.0, -187500.02235174447, -0.224, 0.1, -0.984, 192.0, 249.0, 0.0, 3.0, 32.0, 225.0, 64.0, 0.0, 0.0, 0.0, 1.677705949813624E9, 0.0, 2023-03-01 13:25:49.813
161.0, 30258.830518583123, 12136.393742131442, 0.0, -187500.02235174447, 0.0, 0.0, 0.0, -187500.02235174447, -0.224, 0.1, -0.984, 192.0, 0.0, 0.0, 0.0, 0.0, 0.0, 0.0, 0.0, 0.0, 0.0, 1.677705949813639E9, 0.0, 2023-03-01 13:25:49.813
162.0, 30228.968587990832, 12092.785488699137, 0.0, -187500.02235174447, 0.0, 0.0, 0.0, -187500.02235174447, -0.224, 0.1, -0.984, 192.0, 0.0, 0.0, 0.0, 0.0, 0.0, 0.0, 0.0, 0.0, 0.0, 1.677705949821508E9, 0.0, 2023-03-01 13:25:49.821
163.0, 30187.84137819307, 12044.52807242013, 0.0, -187500.02235174447, 0.0, 0.0, 0.0, -187500.02235174447, -0.224, 0.1, -0.984, 192.0, 0.0, 0.0, 0.0, 0.0, 0.0, 0.0, 0.0, 0.0, 0.0, 1.677705949821519E9, 0.0, 2023-03-01 13:25:49.821
164.0, 30213.590587805582, 12084.828267673049, 0.0, -187500.02235174447, 0.0, 0.0, 0.0, -187500.02235174447, -0.224, 0.1, -0.984, 192.0, 0.0, 0.0, 0.0, 0.0, 0.0, 0.0, 0.0, 0.0, 0.0, 1.677705949828701E9, 0.0, 2023-03-01 13:25:49.828
165.0, 30257.55646914917, 12139.21006193281, 0.0, -187500.02235174447, 0.0, 0.0, 0.0, -187500.02235174447, -0.224, 0.1, -0.984, 192.0, 0.0, 0.0, 0.0, 0.0, 0.0, 0.0, 0.0, 0.0, 0.0, 1.67770594982871E9, 0.0, 2023-03-01 13:25:49.828
166.0, 30233.774213048724, 12103.983712671246, 0.0, -187500.02235174447, 0.0, 0.0, 0.0, -187500.02235174447, -0.224, 0.1, -0.984, 192.0, 0.0, 0.0, 0.0, 0.0, 0.0, 0.0, 0.0, 0.0, 0.0, 1.677705949836374E9, 0.0, 2023-03-01 13:25:49.836
167.0, 30184.198043846853, 12042.538767163607, 0.0, -187500.02235174447, 0.0, 0.0, 0.0, -187500.02235174447, -0.224, 0.1, -0.984, 192.0, 0.0, 0.0, 0.0, 0.0, 0.0, 0.0, 0.0, 0.0, 0.0, 1.677705949836393E9, 0.0, 2023-03-01 13:25:49.836
168.0, 30199.64309926547, 12068.511494220675, 0.0, -187500.02235174447, 0.0, 0.0, 0.0, -187500.02235174447, -0.224, 0.1, -0.984, 192.0, 0.0, 0.0, 0.0, 0.0, 0.0, 0.0, 0.0, 0.0, 0.0, 1.677705949845712E9, 0.0, 2023-03-01 13:25:49.845
169.0, 30254.04724526969, 12132.884518251958, 0.0, -187500.02235174447, 0.0, 0.0, 0.0, -187500.02235174447, -0.224, 0.1, -0.984, 192.0, 0.0, 0.0, 0.0, 0.0, 0.0, 0.0, 0.0, 0.0, 0.0, 1.677705949845727E9, 0.0, 2023-03-01 13:25:49.845
170.0, 30241.239695696797, 12113.952590698313, 0.0, -187500.02235174447, 0.0, 0.0, 0.0, -187500.02235174447, -0.226, 0.09, -0.986, 192.0, 248.0, 240.0, 2.0, 208.0, 225.0, 48.0, 0.0, 0.0, 0.0, 1.677705949851675E9, 0.0, 2023-03-01 13:25:49.851
171.0, 30186.008535147732, 12045.91388057636, 0.0, -187500.02235174447, 0.0, 0.0, 0.0, -187500.02235174447, -0.226, 0.09, -0.986, 192.0, 0.0, 0.0, 0.0, 0.0, 0.0, 0.0, 0.0, 0.0, 0.0, 1.677705949858485E9, 0.0, 2023-03-01 13:25:49.858
172.0, 30186.276756081195, 12054.63106091393, 0.0, -187500.02235174447, 0.0, 0.0, 0.0, -187500.02235174447, -0.226, 0.09, -0.986, 192.0, 0.0, 0.0, 0.0, 0.0, 0.0, 0.0, 0.0, 0.0, 0.0, 1.677705949858496E9, 0.0, 2023-03-01 13:25:49.858
173.0, 30240.524439874225, 12123.183861158355, 0.0, -187500.02235174447, 0.0, 0.0, 0.0, -187500.02235174447, -0.226, 0.09, -0.986, 192.0, 0.0, 0.0, 0.0, 0.0, 0.0, 0.0, 0.0, 0.0, 0.0, 1.677705949865811E9, 0.0, 2023-03-01 13:25:49.865
174.0, 30247.45348065537, 12120.769872757182, 0.0, -187500.02235174447, 0.0, 0.0, 0.0, -187500.02235174447, -0.226, 0.09, -0.986, 192.0, 0.0, 0.0, 0.0, 0.0, 0.0, 0.0, 0.0, 0.0, 0.0, 1.677705949865823E9, 0.0, 2023-03-01 13:25:49.865
175.0, 30202.057087666642, 12059.257872016176, 0.0, -187500.02235174447, 0.0, 0.0, 0.0, -187500.02235174447, -0.226, 0.09, -0.986, 192.0, 0.0, 0.0, 0.0, 0.0, 0.0, 0.0, 0.0, 0.0, 0.0, 1.677705949873933E9, 0.0, 2023-03-01 13:25:49.873
176.0, 30187.01436364822, 12047.791427110604, 0.0, -187500.02235174447, 0.0, 0.0, 0.0, -187500.02235174447, -0.226, 0.09, -0.986, 192.0, 0.0, 0.0, 0.0, 0.0, 0.0, 0.0, 0.0, 0.0, 0.0, 1.677705949873942E9, 0.0, 2023-03-01 13:25:49.873
177.0, 30236.903457272467, 12111.985637186246, 0.0, -187500.02235174447, 0.0, 0.0, 0.0, -187500.02235174447, -0.226, 0.09, -0.986, 192.0, 0.0, 0.0, 0.0, 0.0, 0.0, 0.0, 0.0, 0.0, 0.0, 1.677705949881905E9, 0.0, 2023-03-01 13:25:49.881
178.0, 30253.287285958206, 12126.000180959723, 0.0, -187500.02235174447, 0.0, 0.0, 0.0, -187500.02235174447, -0.226, 0.09, -0.986, 192.0, 0.0, 0.0, 0.0, 0.0, 0.0, 0.0, 0.0, 0.0, 0.0, 1.677705949881924E9, 0.0, 2023-03-01 13:25:49.881
179.0, 30207.622672036014, 12064.1976075408, 0.0, -187500.02235174447, 0.0, 0.0, 0.0, -187500.02235174447, -0.226, 0.09, -0.986, 192.0, 0.0, 0.0, 0.0, 0.0, 0.0, 0.0, 0.0, 0.0, 0.0, 1.677705949888509E9, 0.0, 2023-03-01 13:25:49.888
180.0, 30181.046447878656, 12037.599031638985, 0.0, -187500.02235174447, 0.0, 0.0, 0.0, -187500.02235174447, -0.226, 0.088, -0.988, 192.0, 248.0, 240.0, 2.0, 192.0, 225.0, 32.0, 0.0, 0.0, 0.0, 1.677705949888524E9, 0.0, 2023-03-01 13:25:49.888
181.0, 30222.263064654242, 12098.82045970207, 0.0, -187500.02235174447, 0.0, 0.0, 0.0, -187500.02235174447, -0.226, 0.088, -0.988, 192.0, 0.0, 0.0, 0.0, 0.0, 0.0, 0.0, 0.0, 0.0, 0.0, 1.677705949896512E9, 0.0, 2023-03-01 13:25:49.896
182.0, 30252.12499524653, 12127.564803071595, 0.0, -187500.02235174447, 0.0, 0.0, 0.0, -187500.02235174447, -0.226, 0.088, -0.988, 192.0, 0.0, 0.0, 0.0, 0.0, 0.0, 0.0, 0.0, 0.0, 0.0, 1.677705949896527E9, 0.0, 2023-03-01 13:25:49.896
183.0, 30217.882122741, 12074.814686157071, 0.0, -187500.02235174447, 0.0, 0.0, 0.0, -187500.02235174447, -0.226, 0.088, -0.988, 192.0, 0.0, 0.0, 0.0, 0.0, 0.0, 0.0, 0.0, 0.0, 0.0, 1.677705949904571E9, 0.0, 2023-03-01 13:25:49.904
184.0, 30184.443913035862, 12036.436740927309, 0.0, -187500.02235174447, 0.0, 0.0, 0.0, -187500.02235174447, -0.226, 0.088, -0.988, 192.0, 0.0, 0.0, 0.0, 0.0, 0.0, 0.0, 0.0, 0.0, 0.0, 1.677705949904582E9, 0.0, 2023-03-01 13:25:49.904
185.0, 30218.664433796937, 12088.024567130156, 0.0, -187500.02235174447, 0.0, 0.0, 0.0, -187500.02235174447, -0.226, 0.088, -0.988, 192.0, 0.0, 0.0, 0.0, 0.0, 0.0, 0.0, 0.0, 0.0, 0.0, 1.677705949910654E9, 0.0, 2023-03-01 13:25:49.910
186.0, 30252.23675396881, 12130.023494961679, 0.0, -187500.02235174447, 0.0, 0.0, 0.0, -187500.02235174447, -0.226, 0.088, -0.988, 192.0, 0.0, 0.0, 0.0, 0.0, 0.0, 0.0, 0.0, 0.0, 0.0, 1.677705949910662E9, 0.0, 2023-03-01 13:25:49.910
187.0, 30216.920997729423, 12082.503686249696, 0.0, -187500.02235174447, 0.0, 0.0, 0.0, -187500.02235174447, -0.226, 0.088, -0.988, 192.0, 0.0, 0.0, 0.0, 0.0, 0.0, 0.0, 0.0, 0.0, 0.0, 1.677705949918109E9, 0.0, 2023-03-01 13:25:49.918
188.0, 30171.077569851586, 12026.065531500046, 0.0, -187500.02235174447, 0.0, 0.0, 0.0, -187500.02235174447, -0.226, 0.088, -0.988, 192.0, 0.0, 0.0, 0.0, 0.0, 0.0, 0.0, 0.0, 0.0, 0.0, 1.677705949926105E9, 0.0, 2023-03-01 13:25:49.926
189.0, 30196.40209631945, 12065.583415697029, 0.0, -187500.02235174447, 0.0, 0.0, 0.0, -187500.02235174447, -0.226, 0.088, -0.988, 192.0, 0.0, 0.0, 0.0, 0.0, 0.0, 0.0, 0.0, 0.0, 0.0, 1.677705949926124E9, 0.0, 2023-03-01 13:25:49.926
190.0, 30240.055053240667, 12118.959381456301, 0.0, -187500.02235174447, 0.0, 0.0, 0.0, -187500.02235174447, -0.228, 0.09, -0.988, 192.0, 248.0, 224.0, 2.0, 208.0, 225.0, 32.0, 0.0, 0.0, 0.0, 1.677705949934323E9, 0.0, 2023-03-01 13:25:49.934
191.0, 30219.714965786337, 12086.214075829277, 0.0, -187500.02235174447, 0.0, 0.0, 0.0, -187500.02235174447, -0.228, 0.09, -0.988, 192.0, 0.0, 0.0, 0.0, 0.0, 0.0, 0.0, 0.0, 0.0, 0.0, 1.677705949934369E9, 0.0, 2023-03-01 13:25:49.934
192.0, 30167.74715992775, 12020.499947130675, 0.0, -187500.02235174447, 0.0, 0.0, 0.0, -187500.02235174447, -0.228, 0.09, -0.988, 192.0, 0.0, 0.0, 0.0, 0.0, 0.0, 0.0, 0.0, 0.0, 0.0, 1.677705949940739E9, 0.0, 2023-03-01 13:25:49.940
193.0, 30179.83945367807, 12044.550424164585, 0.0, -187500.02235174447, 0.0, 0.0, 0.0, -187500.02235174447, -0.228, 0.09, -0.988, 192.0, 0.0, 0.0, 0.0, 0.0, 0.0, 0.0, 0.0, 0.0, 0.0, 1.67770594994075E9, 0.0, 2023-03-01 13:25:49.940
194.0, 30232.187239192397, 12110.979808685757, 0.0, -187500.02235174447, 0.0, 0.0, 0.0, -187500.02235174447, -0.228, 0.09, -0.988, 192.0, 0.0, 0.0, 0.0, 0.0, 0.0, 0.0, 0.0, 0.0, 0.0, 1.677705949948788E9, 0.0, 2023-03-01 13:25:49.948
195.0, 30225.41466062244, 12094.707738722294, 0.0, -187500.02235174447, 0.0, 0.0, 0.0, -187500.02235174447, -0.228, 0.09, -0.988, 192.0, 0.0, 0.0, 0.0, 0.0, 0.0, 0.0, 0.0, 0.0, 0.0, 1.6777059499488E9, 0.0, 2023-03-01 13:25:49.948
196.0, 30175.994953631754, 12028.501871645674, 0.0, -187500.02235174447, 0.0, 0.0, 0.0, -187500.02235174447, -0.228, 0.09, -0.988, 192.0, 0.0, 0.0, 0.0, 0.0, 0.0, 0.0, 0.0, 0.0, 0.0, 1.67770594995667E9, 0.0, 2023-03-01 13:25:49.956
197.0, 30177.313706554618, 12034.156862992868, 0.0, -187500.02235174447, 0.0, 0.0, 0.0, -187500.02235174447, -0.228, 0.09, -0.988, 192.0, 0.0, 0.0, 0.0, 0.0, 0.0, 0.0, 0.0, 0.0, 0.0, 1.677705949956678E9, 0.0, 2023-03-01 13:25:49.956
198.0, 30229.817954280134, 12101.413262058886, 0.0, -187500.02235174447, 0.0, 0.0, 0.0, -187500.02235174447, -0.228, 0.09, -0.988, 192.0, 0.0, 0.0, 0.0, 0.0, 0.0, 0.0, 0.0, 0.0, 0.0, 1.677705949963776E9, 0.0, 2023-03-01 13:25:49.963
199.0, 30236.344663661086, 12102.240276603732, 0.0, -187500.02235174447, 0.0, 0.0, 0.0, -187500.02235174447, -0.228, 0.09, -0.988, 192.0, 0.0, 0.0, 0.0, 0.0, 0.0, 0.0, 0.0, 0.0, 0.0, 1.677705949963795E9, 0.0, 2023-03-01 13:25:49.963
200.0, 30192.22232010631, 12042.114084018956, 0.0, -187500.02235174447, 0.0, 0.0, 0.0, -187500.02235174447, -0.228, 0.098, -0.99, 192.0, 248.0, 224.0, 3.0, 16.0, 225.0, 16.0, 0.0, 0.0, 0.0, 1.677705949971362E9, 0.0, 2023-03-01 13:25:49.971
201.0, 30174.720904197802, 12029.172423979333, 0.0, -187500.02235174447, 0.0, 0.0, 0.0, -187500.02235174447, -0.228, 0.098, -0.99, 192.0, 0.0, 0.0, 0.0, 0.0, 0.0, 0.0, 0.0, 0.0, 0.0, 1.677705949971378E9, 0.0, 2023-03-01 13:25:49.971
202.0, 30222.084250698597, 12094.73009046675, 0.0, -187500.02235174447, 0.0, 0.0, 0.0, -187500.02235174447, -0.228, 0.098, -0.99, 192.0, 0.0, 0.0, 0.0, 0.0, 0.0, 0.0, 0.0, 0.0, 0.0, 1.677705949978459E9, 0.0, 2023-03-01 13:25:49.978
203.0, 30240.74795731878, 12108.230544117754, 0.0, -187500.02235174447, 0.0, 0.0, 0.0, -187500.02235174447, -0.228, 0.098, -0.99, 192.0, 0.0, 0.0, 0.0, 0.0, 0.0, 0.0, 0.0, 0.0, 0.0, 1.677705949986335E9, 0.0, 2023-03-01 13:25:49.986
204.0, 30199.30782309864, 12049.691325389305, 0.0, -187500.02235174447, 0.0, 0.0, 0.0, -187500.02235174447, -0.228, 0.098, -0.99, 192.0, 0.0, 0.0, 0.0, 0.0, 0.0, 0.0, 0.0, 0.0, 0.0, 1.677705949986347E9, 0.0, 2023-03-01 13:25:49.986
205.0, 30177.805444932634, 12027.272525700633, 0.0, -187500.02235174447, 0.0, 0.0, 0.0, -187500.02235174447, -0.228, 0.098, -0.99, 192.0, 0.0, 0.0, 0.0, 0.0, 0.0, 0.0, 0.0, 0.0, 0.0, 1.677705949993501E9, 0.0, 2023-03-01 13:25:49.993
206.0, 30233.28247467071, 12094.618331744472, 0.0, -187500.02235174447, 0.0, 0.0, 0.0, -187500.02235174447, -0.228, 0.098, -0.99, 192.0, 0.0, 0.0, 0.0, 0.0, 0.0, 0.0, 0.0, 0.0, 0.0, 1.677705949993513E9, 0.0, 2023-03-01 13:25:49.993
207.0, 30266.81009135367, 12126.670733293384, 0.0, -187500.02235174447, 0.0, 0.0, 0.0, -187500.02235174447, -0.228, 0.098, -0.99, 192.0, 0.0, 0.0, 0.0, 0.0, 0.0, 0.0, 0.0, 0.0, 0.0, 1.677705950001631E9, 0.0, 2023-03-01 13:25:50.001
208.0, 30226.97928273431, 12075.596997213006, 0.0, -187500.02235174447, 0.0, 0.0, 0.0, -187500.02235174447, -0.228, 0.098, -0.99, 192.0, 0.0, 0.0, 0.0, 0.0, 0.0, 0.0, 0.0, 0.0, 0.0, 1.677705950001697E9, 0.0, 2023-03-01 13:25:50.001
209.0, 30186.50027352575, 12032.346371691987, 0.0, -187500.02235174447, 0.0, 0.0, 0.0, -187500.02235174447, -0.228, 0.098, -0.99, 192.0, 0.0, 0.0, 0.0, 0.0, 0.0, 0.0, 0.0, 0.0, 0.0, 1.677705950009107E9, 0.0, 2023-03-01 13:25:50.009
210.0, 30219.26793089723, 12080.402622270898, 0.0, -187500.02235174447, 0.0, 0.0, 0.0, -187500.02235174447, -0.228, 0.1, -0.988, 192.0, 248.0, 224.0, 3.0, 32.0, 225.0, 32.0, 0.0, 0.0, 0.0, 1.677705950009134E9, 0.0, 2023-03-01 13:25:50.009
211.0, 30260.66336162846, 12129.531756583663, 0.0, -187500.02235174447, 0.0, 0.0, 0.0, -187500.02235174447, -0.228, 0.1, -0.988, 192.0, 0.0, 0.0, 0.0, 0.0, 0.0, 0.0, 0.0, 0.0, 0.0, 1.677705950016987E9, 0.0, 2023-03-01 13:25:50.016
212.0, 30234.601227593572, 12088.672767719361, 0.0, -187500.02235174447, 0.0, 0.0, 0.0, -187500.02235174447, -0.228, 0.1, -0.988, 192.0, 0.0, 0.0, 0.0, 0.0, 0.0, 0.0, 0.0, 0.0, 0.0, 1.677705950017006E9, 0.0, 2023-03-01 13:25:50.017
213.0, 30192.915224184424, 12036.660258371861, 0.0, -187500.02235174447, 0.0, 0.0, 0.0, -187500.02235174447, -0.228, 0.1, -0.988, 192.0, 0.0, 0.0, 0.0, 0.0, 0.0, 0.0, 0.0, 0.0, 0.0, 1.677705950023633E9, 0.0, 2023-03-01 13:25:50.023
214.0, 30222.464230354337, 12078.323910036554, 0.0, -187500.02235174447, 0.0, 0.0, 0.0, -187500.02235174447, -0.228, 0.1, -0.988, 192.0, 0.0, 0.0, 0.0, 0.0, 0.0, 0.0, 0.0, 0.0, 0.0, 1.677705950023643E9, 0.0, 2023-03-01 13:25:50.023
215.0, 30274.633201913024, 12137.2654601652, 0.0, -187500.02235174447, 0.0, 0.0, 0.0, -187500.02235174447, -0.228, 0.1, -0.988, 192.0, 0.0, 0.0, 0.0, 0.0, 0.0, 0.0, 0.0, 0.0, 0.0, 1.677705950031723E9, 0.0, 2023-03-01 13:25:50.031
216.0, 30256.438881926406, 12107.828212717559, 0.0, -187500.02235174447, 0.0, 0.0, 0.0, -187500.02235174447, -0.228, 0.1, -0.988, 192.0, 0.0, 0.0, 0.0, 0.0, 0.0, 0.0, 0.0, 0.0, 0.0, 1.677705950031735E9, 0.0, 2023-03-01 13:25:50.031
217.0, 30206.12510515751, 12046.80795035457, 0.0, -187500.02235174447, 0.0, 0.0, 0.0, -187500.02235174447, -0.228, 0.1, -0.988, 192.0, 0.0, 0.0, 0.0, 0.0, 0.0, 0.0, 0.0, 0.0, 0.0, 1.677705950038594E9, 0.0, 2023-03-01 13:25:50.038
218.0, 30217.949177974366, 12072.087773333524, 0.0, -187500.02235174447, 0.0, 0.0, 0.0, -187500.02235174447, -0.228, 0.1, -0.988, 192.0, 0.0, 0.0, 0.0, 0.0, 0.0, 0.0, 0.0, 0.0, 0.0, 1.6777059500468E9, 0.0, 2023-03-01 13:25:50.046
219.0, 30269.872280344043, 12139.634745077461, 0.0, -187500.02235174447, 0.0, 0.0, 0.0, -187500.02235174447, -0.228, 0.1, -0.988, 192.0, 0.0, 0.0, 0.0, 0.0, 0.0, 0.0, 0.0, 0.0, 0.0, 1.677705950046819E9, 0.0, 2023-03-01 13:25:50.046
220.0, 30263.054998285177, 12123.027398947168, 0.0, -187500.02235174447, 0.0, 0.0, 0.0, -187500.02235174447, -0.228, 0.1, -0.988, 192.0, 0.0, 0.0, 0.0, 0.0, 0.0, 0.0, 0.0, 0.0, 0.0, 1.677705950053263E9, 0.0, 2023-03-01 13:25:50.053
221.0, 30208.919073214423, 12051.613575412463, 0.0, -187500.02235174447, 0.0, 0.0, 0.0, -187500.02235174447, -0.224, 0.1, -0.984, 192.0, 249.0, 0.0, 3.0, 32.0, 225.0, 64.0, 0.0, 0.0, 0.0, 1.677705950053279E9, 0.0, 2023-03-01 13:25:50.053
222.0, 30202.526474300204, 12052.015906812658, 0.0, -187500.02235174447, 0.0, 0.0, 0.0, -187500.02235174447, -0.224, 0.1, -0.984, 192.0, 0.0, 0.0, 0.0, 0.0, 0.0, 0.0, 0.0, 0.0, 0.0, 1.677705950061357E9, 0.0, 2023-03-01 13:25:50.061
223.0, 30263.010294796266, 12127.408340860407, 0.0, -187500.02235174447, 0.0, 0.0, 0.0, -187500.02235174447, -0.224, 0.1, -0.984, 192.0, 0.0, 0.0, 0.0, 0.0, 0.0, 0.0, 0.0, 0.0, 0.0, 1.677705950061373E9, 0.0, 2023-03-01 13:25:50.061
224.0, 30282.523367705748, 12139.567689844096, 0.0, -187500.02235174447, 0.0, 0.0, 0.0, -187500.02235174447, -0.224, 0.1, -0.984, 192.0, 0.0, 0.0, 0.0, 0.0, 0.0, 0.0, 0.0, 0.0, 0.0, 1.677705950069276E9, 0.0, 2023-03-01 13:25:50.069
225.0, 30221.92778848741, 12063.258834273676, 0.0, -187500.02235174447, 0.0, 0.0, 0.0, -187500.02235174447, -0.224, 0.1, -0.984, 192.0, 0.0, 0.0, 0.0, 0.0, 0.0, 0.0, 0.0, 0.0, 0.0, 1.677705950069287E9, 0.0, 2023-03-01 13:25:50.069
226.0, 30181.538186256672, 12029.842976312993, 0.0, -187500.02235174447, 0.0, 0.0, 0.0, -187500.02235174447, -0.224, 0.1, -0.984, 192.0, 0.0, 0.0, 0.0, 0.0, 0.0, 0.0, 0.0, 0.0, 0.0, 1.677705950076409E9, 0.0, 2023-03-01 13:25:50.076
227.0, 30234.824745038124, 12100.921523680869, 0.0, -187500.02235174447, 0.0, 0.0, 0.0, -187500.02235174447, -0.224, 0.1, -0.984, 192.0, 0.0, 0.0, 0.0, 0.0, 0.0, 0.0, 0.0, 0.0, 0.0, 1.677705950076422E9, 0.0, 2023-03-01 13:25:50.076
228.0, 30267.41358845396, 12130.78345427316, 0.0, -187500.02235174447, 0.0, 0.0, 0.0, -187500.02235174447, -0.224, 0.1, -0.984, 192.0, 0.0, 0.0, 0.0, 0.0, 0.0, 0.0, 0.0, 0.0, 0.0, 1.677705950083997E9, 0.0, 2023-03-01 13:25:50.083
229.0, 30224.319425144127, 12071.461924488774, 0.0, -187500.02235174447, 0.0, 0.0, 0.0, -187500.02235174447, -0.224, 0.1, -0.984, 192.0, 0.0, 0.0, 0.0, 0.0, 0.0, 0.0, 0.0, 0.0, 0.0, 1.677705950084009E9, 0.0, 2023-03-01 13:25:50.084
230.0, 30197.94436668687, 12041.689400874306, 0.0, -187500.02235174447, 0.0, 0.0, 0.0, -187500.02235174447, -0.224, 0.1, -0.984, 192.0, 0.0, 0.0, 0.0, 0.0, 0.0, 0.0, 0.0, 0.0, 0.0, 1.677705950093372E9, 0.0, 2023-03-01 13:25:50.093
231.0, 30244.391291664993, 12104.006064415702, 0.0, -187500.02235174447, 0.0, 0.0, 0.0, -187500.02235174447, -0.22, 0.1, -0.984, 192.0, 249.0, 32.0, 3.0, 32.0, 225.0, 64.0, 0.0, 0.0, 0.0, 1.677705950093389E9, 0.0, 2023-03-01 13:25:50.093
232.0, 30277.740094392313, 12141.35582940052, 0.0, -187500.02235174447, 0.0, 0.0, 0.0, -187500.02235174447, -0.22, 0.1, -0.984, 192.0, 0.0, 0.0, 0.0, 0.0, 0.0, 0.0, 0.0, 0.0, 0.0, 1.67770595009944E9, 0.0, 2023-03-01 13:25:50.099
233.0, 30245.017140509743, 12094.372462555464, 0.0, -187500.02235174447, 0.0, 0.0, 0.0, -187500.02235174447, -0.22, 0.1, -0.984, 192.0, 0.0, 0.0, 0.0, 0.0, 0.0, 0.0, 0.0, 0.0, 0.0, 1.677705950105612E9, 0.0, 2023-03-01 13:25:50.105
234.0, 30206.482733068795, 12051.233595756721, 0.0, -187500.02235174447, 0.0, 0.0, 0.0, -187500.02235174447, -0.22, 0.1, -0.984, 192.0, 0.0, 0.0, 0.0, 0.0, 0.0, 0.0, 0.0, 0.0, 0.0, 1.677705950105624E9, 0.0, 2023-03-01 13:25:50.105
235.0, 30240.636198596505, 12097.34524456802, 0.0, -187500.02235174447, 0.0, 0.0, 0.0, -187500.02235174447, -0.22, 0.1, -0.984, 192.0, 0.0, 0.0, 0.0, 0.0, 0.0, 0.0, 0.0, 0.0, 0.0, 1.677705950113692E9, 0.0, 2023-03-01 13:25:50.113
236.0, 30279.975268837843, 12142.16049220091, 0.0, -187500.02235174447, 0.0, 0.0, 0.0, -187500.02235174447, -0.22, 0.1, -0.984, 192.0, 0.0, 0.0, 0.0, 0.0, 0.0, 0.0, 0.0, 0.0, 0.0, 1.677705950113706E9, 0.0, 2023-03-01 13:25:50.113
237.0, 30251.23092546832, 12100.96622716978, 0.0, -187500.02235174447, 0.0, 0.0, 0.0, -187500.02235174447, -0.22, 0.1, -0.984, 192.0, 0.0, 0.0, 0.0, 0.0, 0.0, 0.0, 0.0, 0.0, 0.0, 1.677705950121654E9, 0.0, 2023-03-01 13:25:50.121
238.0, 30202.615881278027, 12040.86238632946, 0.0, -187500.02235174447, 0.0, 0.0, 0.0, -187500.02235174447, -0.22, 0.1, -0.984, 192.0, 0.0, 0.0, 0.0, 0.0, 0.0, 0.0, 0.0, 0.0, 0.0, 1.677705950121662E9, 0.0, 2023-03-01 13:25:50.121
239.0, 30230.756727547257, 12079.10622109249, 0.0, -187500.02235174447, 0.0, 0.0, 0.0, -187500.02235174447, -0.22, 0.1, -0.984, 192.0, 0.0, 0.0, 0.0, 0.0, 0.0, 0.0, 0.0, 0.0, 0.0, 1.677705950128611E9, 0.0, 2023-03-01 13:25:50.128
240.0, 30282.143388050008, 12141.221718933788, 0.0, -187500.02235174447, 0.0, 0.0, 0.0, -187500.02235174447, -0.22, 0.1, -0.984, 192.0, 0.0, 0.0, 0.0, 0.0, 0.0, 0.0, 0.0, 0.0, 0.0, 1.677705950128665E9, 0.0, 2023-03-01 13:25:50.128
241.0, 30265.73720761981, 12117.417111088886, 0.0, -187500.02235174447, 0.0, 0.0, 0.0, -187500.02235174447, -0.228, 0.098, -0.984, 192.0, 248.0, 224.0, 3.0, 16.0, 225.0, 64.0, 0.0, 0.0, 0.0, 1.677705950136178E9, 0.0, 2023-03-01 13:25:50.136
242.0, 30216.518666329226, 12059.570796438551, 0.0, -187500.02235174447, 0.0, 0.0, 0.0, -187500.02235174447, -0.228, 0.098, -0.984, 192.0, 0.0, 0.0, 0.0, 0.0, 0.0, 0.0, 0.0, 0.0, 0.0, 1.677705950136192E9, 0.0, 2023-03-01 13:25:50.136
243.0, 30227.448669367874, 12082.77190718316, 0.0, -187500.02235174447, 0.0, 0.0, 0.0, -187500.02235174447, -0.228, 0.098, -0.984, 192.0, 0.0, 0.0, 0.0, 0.0, 0.0, 0.0, 0.0, 0.0, 0.0, 1.677705950144283E9, 0.0, 2023-03-01 13:25:50.144
244.0, 30281.495187460805, 12151.704687083327, 0.0, -187500.02235174447, 0.0, 0.0, 0.0, -187500.02235174447, -0.228, 0.098, -0.984, 192.0, 0.0, 0.0, 0.0, 0.0, 0.0, 0.0, 0.0, 0.0, 0.0, 1.677705950144298E9, 0.0, 2023-03-01 13:25:50.144
245.0, 30274.18616702392, 12136.460797364807, 0.0, -187500.02235174447, 0.0, 0.0, 0.0, -187500.02235174447, -0.228, 0.098, -0.984, 192.0, 0.0, 0.0, 0.0, 0.0, 0.0, 0.0, 0.0, 0.0, 0.0, 1.677705950152277E9, 0.0, 2023-03-01 13:25:50.152
246.0, 30224.252369910762, 12066.34337500851, 0.0, -187500.02235174447, 0.0, 0.0, 0.0, -187500.02235174447, -0.228, 0.098, -0.984, 192.0, 0.0, 0.0, 0.0, 0.0, 0.0, 0.0, 0.0, 0.0, 0.0, 1.677705950152288E9, 0.0, 2023-03-01 13:25:50.152
247.0, 30223.157134432455, 12071.260758788678, 0.0, -187500.02235174447, 0.0, 0.0, 0.0, -187500.02235174447, -0.228, 0.098, -0.984, 192.0, 0.0, 0.0, 0.0, 0.0, 0.0, 0.0, 0.0, 0.0, 0.0, 1.677705950159212E9, 0.0, 2023-03-01 13:25:50.159
248.0, 30279.975268837843, 12141.78051254517, 0.0, -187500.02235174447, 0.0, 0.0, 0.0, -187500.02235174447, -0.228, 0.098, -0.984, 192.0, 0.0, 0.0, 0.0, 0.0, 0.0, 0.0, 0.0, 0.0, 0.0, 1.677705950159221E9, 0.0, 2023-03-01 13:25:50.159
249.0, 30290.592347454116, 12148.97777425978, 0.0, -187500.02235174447, 0.0, 0.0, 0.0, -187500.02235174447, -0.228, 0.098, -0.984, 192.0, 0.0, 0.0, 0.0, 0.0, 0.0, 0.0, 0.0, 0.0, 0.0, 1.677705950167346E9, 0.0, 2023-03-01 13:25:50.167
250.0, 30241.865544541546, 12085.76704094017, 0.0, -187500.02235174447, 0.0, 0.0, 0.0, -187500.02235174447, -0.228, 0.098, -0.984, 192.0, 0.0, 0.0, 0.0, 0.0, 0.0, 0.0, 0.0, 0.0, 0.0, 1.677705950175198E9, 0.0, 2023-03-01 13:25:50.175
251.0, 30221.860733254045, 12067.282148275632, 0.0, -187500.02235174447, 0.0, 0.0, 0.0, -187500.02235174447, -0.226, 0.096, -0.982, 192.0, 248.0, 240.0, 3.0, 0.0, 225.0, 80.0, 0.0, 0.0, 0.0, 1.677705950175219E9, 0.0, 2023-03-01 13:25:50.175
252.0, 30269.358190221574, 12131.54341358464, 0.0, -187500.02235174447, 0.0, 0.0, 0.0, -187500.02235174447, -0.226, 0.096, -0.982, 192.0, 0.0, 0.0, 0.0, 0.0, 0.0, 0.0, 0.0, 0.0, 0.0, 1.677705950183407E9, 0.0, 2023-03-01 13:25:50.183
253.0, 30291.28525153223, 12151.347059172042, 0.0, -187500.02235174447, 0.0, 0.0, 0.0, -187500.02235174447, -0.226, 0.096, -0.982, 192.0, 0.0, 0.0, 0.0, 0.0, 0.0, 0.0, 0.0, 0.0, 0.0, 1.677705950183425E9, 0.0, 2023-03-01 13:25:50.183
254.0, 30248.70517834487, 12091.086756120534, 0.0, -187500.02235174447, 0.0, 0.0, 0.0, -187500.02235174447, -0.226, 0.096, -0.982, 192.0, 0.0, 0.0, 0.0, 0.0, 0.0, 0.0, 0.0, 0.0, 0.0, 1.677705950189498E9, 0.0, 2023-03-01 13:25:50.189
255.0, 30220.02789020871, 12056.598014425996, 0.0, -187500.02235174447, 0.0, 0.0, 0.0, -187500.02235174447, -0.226, 0.096, -0.982, 192.0, 0.0, 0.0, 0.0, 0.0, 0.0, 0.0, 0.0, 0.0, 0.0, 1.677705950189511E9, 0.0, 2023-03-01 13:25:50.189
0.0, 30259.70223661688, 12113.840831976036, 0.0, -187500.02235174447, 0.0, 0.0, 0.0, -187500.02235174447, -0.226, 0.096, -0.982, 192.0, 0.0, 0.0, 0.0, 0.0, 0.0, 0.0, 0.0, 0.0, 0.0, 1.67770595019658E9, 0.0, 2023-03-01 13:25:50.196
1.0, 30289.877091631544, 12147.860187037015, 0.0, -187500.02235174447, 0.0, 0.0, 0.0, -187500.02235174447, -0.226, 0.096, -0.982, 192.0, 0.0, 0.0, 0.0, 0.0, 0.0, 0.0, 0.0, 0.0, 0.0, 1.677705950196592E9, 0.0, 2023-03-01 13:25:50.196
2.0, 30250.426262667926, 12093.701910221806, 0.0, -187500.02235174447, 0.0, 0.0, 0.0, -187500.02235174447, -0.226, 0.096, -0.982, 192.0, 0.0, 0.0, 0.0, 0.0, 0.0, 0.0, 0.0, 0.0, 0.0, 1.677705950204455E9, 0.0, 2023-03-01 13:25:50.204
3.0, 30209.0308319367, 12047.500854432685, 0.0, -187500.02235174447, 0.0, 0.0, 0.0, -187500.02235174447, -0.226, 0.096, -0.982, 192.0, 0.0, 0.0, 0.0, 0.0, 0.0, 0.0, 0.0, 0.0, 0.0, 1.677705950204464E9, 0.0, 2023-03-01 13:25:50.204
4.0, 30242.9384282754, 12098.798107957615, 0.0, -187500.02235174447, 0.0, 0.0, 0.0, -187500.02235174447, -0.226, 0.096, -0.982, 192.0, 0.0, 0.0, 0.0, 0.0, 0.0, 0.0, 0.0, 0.0, 0.0, 1.677705950211582E9, 0.0, 2023-03-01 13:25:50.211
5.0, 30287.038420085722, 12149.178939959877, 0.0, -187500.02235174447, 0.0, 0.0, 0.0, -187500.02235174447, -0.22, 0.094, -0.982, 192.0, 249.0, 32.0, 2.0, 240.0, 225.0, 80.0, 0.0, 0.0, 0.0, 1.677705950211599E9, 0.0, 2023-03-01 13:25:50.211
6.0, 30263.189108751907, 12110.465718563286, 0.0, -187500.02235174447, 0.0, 0.0, 0.0, -187500.02235174447, -0.22, 0.094, -0.982, 192.0, 0.0, 0.0, 0.0, 0.0, 0.0, 0.0, 0.0, 0.0, 0.0, 1.677705950219161E9, 0.0, 2023-03-01 13:25:50.219
7.0, 30214.775230261712, 12052.15001727939, 0.0, -187500.02235174447, 0.0, 0.0, 0.0, -187500.02235174447, -0.22, 0.094, -0.982, 192.0, 0.0, 0.0, 0.0, 0.0, 0.0, 0.0, 0.0, 0.0, 0.0, 1.677705950219185E9, 0.0, 2023-03-01 13:25:50.219
8.0, 30233.50599211526, 12084.58239848404, 0.0, -187500.02235174447, 0.0, 0.0, 0.0, -187500.02235174447, -0.22, 0.094, -0.982, 192.0, 0.0, 0.0, 0.0, 0.0, 0.0, 0.0, 0.0, 0.0, 0.0, 1.677705950226157E9, 0.0, 2023-03-01 13:25:50.226
9.0, 30283.730361906335, 12148.798960304137, 0.0, -187500.02235174447, 0.0, 0.0, 0.0, -187500.02235174447, -0.22, 0.094, -0.982, 192.0, 0.0, 0.0, 0.0, 0.0, 0.0, 0.0, 0.0, 0.0, 0.0, 1.677705950234032E9, 0.0, 2023-03-01 13:25:50.234
10.0, 30269.26878324375, 12125.173166414877, 0.0, -187500.02235174447, 0.0, 0.0, 0.0, -187500.02235174447, -0.22, 0.094, -0.982, 192.0, 0.0, 0.0, 0.0, 0.0, 0.0, 0.0, 0.0, 0.0, 0.0, 1.677705950234043E9, 0.0, 2023-03-01 13:25:50.234
11.0, 30219.290282641687, 12061.470694717253, 0.0, -187500.02235174447, 0.0, 0.0, 0.0, -187500.02235174447, -0.22, 0.094, -0.982, 192.0, 0.0, 0.0, 0.0, 0.0, 0.0, 0.0, 0.0, 0.0, 0.0, 1.677705950241068E9, 0.0, 2023-03-01 13:25:50.241
12.0, 30228.54390484618, 12079.016814114668, 0.0, -187500.02235174447, 0.0, 0.0, 0.0, -187500.02235174447, -0.22, 0.094, -0.982, 192.0, 0.0, 0.0, 0.0, 0.0, 0.0, 0.0, 0.0, 0.0, 0.0, 1.677705950241081E9, 0.0, 2023-03-01 13:25:50.241
13.0, 30287.910138119478, 12147.54726261464, 0.0, -187500.02235174447, 0.0, 0.0, 0.0, -187500.02235174447, -0.22, 0.094, -0.982, 192.0, 0.0, 0.0, 0.0, 0.0, 0.0, 0.0, 0.0, 0.0, 0.0, 1.677705950248823E9, 0.0, 2023-03-01 13:25:50.248
14.0, 30288.267766030764, 12139.59004158855, 0.0, -187500.02235174447, 0.0, 0.0, 0.0, -187500.02235174447, -0.22, 0.094, -0.982, 192.0, 0.0, 0.0, 0.0, 0.0, 0.0, 0.0, 0.0, 0.0, 0.0, 1.677705950248831E9, 0.0, 2023-03-01 13:25:50.248
15.0, 30237.663416583946, 12075.440535001819, 0.0, -187500.02235174447, 0.0, 0.0, 0.0, -187500.02235174447, -0.23, 0.09, -0.984, 192.0, 248.0, 208.0, 2.0, 208.0, 225.0, 64.0, 0.0, 0.0, 0.0, 1.677705950256809E9, 0.0, 2023-03-01 13:25:50.256
16.0, 30233.975378748823, 12076.356956524487, 0.0, -187500.02235174447, 0.0, 0.0, 0.0, -187500.02235174447, -0.23, 0.09, -0.984, 192.0, 0.0, 0.0, 0.0, 0.0, 0.0, 0.0, 0.0, 0.0, 0.0, 1.677705950256828E9, 0.0, 2023-03-01 13:25:50.256
17.0, 30287.150178808, 12146.854358536526, 0.0, -187500.02235174447, 0.0, 0.0, 0.0, -187500.02235174447, -0.23, 0.09, -0.984, 192.0, 0.0, 0.0, 0.0, 0.0, 0.0, 0.0, 0.0, 0.0, 0.0, 1.677705950263825E9, 0.0, 2023-03-01 13:25:50.263
18.0, 30294.57095796716, 12153.604585362029, 0.0, -187500.02235174447, 0.0, 0.0, 0.0, -187500.02235174447, -0.23, 0.09, -0.984, 192.0, 0.0, 0.0, 0.0, 0.0, 0.0, 0.0, 0.0, 0.0, 0.0, 1.67770595026384E9, 0.0, 2023-03-01 13:25:50.263
19.0, 30252.192050479898, 12093.701910221806, 0.0, -187500.02235174447, 0.0, 0.0, 0.0, -187500.02235174447, -0.23, 0.09, -0.984, 192.0, 0.0, 0.0, 0.0, 0.0, 0.0, 0.0, 0.0, 0.0, 0.0, 1.677705950271405E9, 0.0, 2023-03-01 13:25:50.271
20.0, 30240.435032896406, 12080.402622270898, 0.0, -187500.02235174447, 0.0, 0.0, 0.0, -187500.02235174447, -0.23, 0.09, -0.984, 192.0, 0.0, 0.0, 0.0, 0.0, 0.0, 0.0, 0.0, 0.0, 0.0, 1.677705950271422E9, 0.0, 2023-03-01 13:25:50.271
21.0, 30280.89169036051, 12138.360695643509, 0.0, -187500.02235174447, 0.0, 0.0, 0.0, -187500.02235174447, -0.23, 0.09, -0.984, 192.0, 0.0, 0.0, 0.0, 0.0, 0.0, 0.0, 0.0, 0.0, 0.0, 1.677705950279451E9, 0.0, 2023-03-01 13:25:50.279
22.0, 30303.154027837998, 12157.516140641706, 0.0, -187500.02235174447, 0.0, 0.0, 0.0, -187500.02235174447, -0.23, 0.09, -0.984, 192.0, 0.0, 0.0, 0.0, 0.0, 0.0, 0.0, 0.0, 0.0, 0.0, 1.677705950279463E9, 0.0, 2023-03-01 13:25:50.279
23.0, 30264.194937252396, 12104.654265004905, 0.0, -187500.02235174447, 0.0, 0.0, 0.0, -187500.02235174447, -0.23, 0.09, -0.984, 192.0, 0.0, 0.0, 0.0, 0.0, 0.0, 0.0, 0.0, 0.0, 0.0, 1.677705950286402E9, 0.0, 2023-03-01 13:25:50.286
24.0, 30231.717852558835, 12070.076116332546, 0.0, -187500.02235174447, 0.0, 0.0, 0.0, -187500.02235174447, -0.23, 0.09, -0.984, 192.0, 0.0, 0.0, 0.0, 0.0, 0.0, 0.0, 0.0, 0.0, 0.0, 1.677705950293566E9, 0.0, 2023-03-01 13:25:50.293
25.0, 30270.766350122256, 12125.754311770716, 0.0, -187500.02235174447, 0.0, 0.0, 0.0, -187500.02235174447, -0.226, 0.1, -0.982, 192.0, 248.0, 240.0, 3.0, 32.0, 225.0, 80.0, 0.0, 0.0, 0.0, 1.677705950293575E9, 0.0, 2023-03-01 13:25:50.293
26.0, 30301.455295259395, 12161.427695921386, 0.0, -187500.02235174447, 0.0, 0.0, 0.0, -187500.02235174447, -0.226, 0.1, -0.982, 192.0, 0.0, 0.0, 0.0, 0.0, 0.0, 0.0, 0.0, 0.0, 0.0, 1.67770595030108E9, 0.0, 2023-03-01 13:25:50.301
27.0, 30263.814957596656, 12108.856392962503, 0.0, -187500.02235174447, 0.0, 0.0, 0.0, -187500.02235174447, -0.226, 0.1, -0.982, 192.0, 0.0, 0.0, 0.0, 0.0, 0.0, 0.0, 0.0, 0.0, 0.0, 1.677705950301103E9, 0.0, 2023-03-01 13:25:50.301
28.0, 30220.07259369762, 12056.888587103915, 0.0, -187500.02235174447, 0.0, 0.0, 0.0, -187500.02235174447, -0.226, 0.1, -0.982, 192.0, 0.0, 0.0, 0.0, 0.0, 0.0, 0.0, 0.0, 0.0, 0.0, 1.677705950309122E9, 0.0, 2023-03-01 13:25:50.309
29.0, 30249.867469056546, 12102.463794048286, 0.0, -187500.02235174447, 0.0, 0.0, 0.0, -187500.02235174447, -0.226, 0.1, -0.982, 192.0, 0.0, 0.0, 0.0, 0.0, 0.0, 0.0, 0.0, 0.0, 0.0, 1.677705950309139E9, 0.0, 2023-03-01 13:25:50.309
30.0, 30301.008260370287, 12161.718268599305, 0.0, -187500.02235174447, 0.0, 0.0, 0.0, -187500.02235174447, -0.226, 0.1, -0.982, 192.0, 0.0, 0.0, 0.0, 0.0, 0.0, 0.0, 0.0, 0.0, 0.0, 1.677705950317097E9, 0.0, 2023-03-01 13:25:50.317
31.0, 30279.930565348932, 12127.788320516149, 0.0, -187500.02235174447, 0.0, 0.0, 0.0, -187500.02235174447, -0.226, 0.1, -0.982, 192.0, 0.0, 0.0, 0.0, 0.0, 0.0, 0.0, 0.0, 0.0, 0.0, 1.677705950317111E9, 0.0, 2023-03-01 13:25:50.317
32.0, 30237.104622972565, 12077.854523402993, 0.0, -187500.02235174447, 0.0, 0.0, 0.0, -187500.02235174447, -0.226, 0.1, -0.982, 192.0, 0.0, 0.0, 0.0, 0.0, 0.0, 0.0, 0.0, 0.0, 0.0, 1.677705950323593E9, 0.0, 2023-03-01 13:25:50.323
33.0, 30259.255201727774, 12114.1090529095, 0.0, -187500.02235174447, 0.0, 0.0, 0.0, -187500.02235174447, -0.226, 0.1, -0.982, 192.0, 0.0, 0.0, 0.0, 0.0, 0.0, 0.0, 0.0, 0.0, 0.0, 1.677705950323636E9, 0.0, 2023-03-01 13:25:50.323
34.0, 30308.76431569628, 12177.588007162572, 0.0, -187500.02235174447, 0.0, 0.0, 0.0, -187500.02235174447, -0.226, 0.1, -0.982, 192.0, 0.0, 0.0, 0.0, 0.0, 0.0, 0.0, 0.0, 0.0, 0.0, 1.677705950331644E9, 0.0, 2023-03-01 13:25:50.331
35.0, 30290.19001605392, 12149.089532982056, 0.0, -187500.02235174447, 0.0, 0.0, 0.0, -187500.02235174447, -0.226, 0.1, -0.982, 192.0, 0.0, 0.0, 0.0, 0.0, 0.0, 0.0, 0.0, 0.0, 0.0, 1.677705950331653E9, 0.0, 2023-03-01 13:25:50.331
36.0, 30234.51182061575, 12075.664052446373, 0.0, -187500.02235174447, 0.0, 0.0, 0.0, -187500.02235174447, -0.224, 0.098, -0.982, 192.0, 249.0, 0.0, 3.0, 16.0, 225.0, 80.0, 0.0, 0.0, 0.0, 1.677705950339801E9, 0.0, 2023-03-01 13:25:50.339
37.0, 30237.350492161575, 12085.409413028887, 0.0, -187500.02235174447, 0.0, 0.0, 0.0, -187500.02235174447, -0.224, 0.098, -0.982, 192.0, 0.0, 0.0, 0.0, 0.0, 0.0, 0.0, 0.0, 0.0, 0.0, 1.67770595033982E9, 0.0, 2023-03-01 13:25:50.339
38.0, 30287.977193352843, 12153.895158039948, 0.0, -187500.02235174447, 0.0, 0.0, 0.0, -187500.02235174447, -0.224, 0.098, -0.982, 192.0, 0.0, 0.0, 0.0, 0.0, 0.0, 0.0, 0.0, 0.0, 0.0, 1.677705950346737E9, 0.0, 2023-03-01 13:25:50.346
39.0, 30287.686620674926, 12145.714419569305, 0.0, -187500.02235174447, 0.0, 0.0, 0.0, -187500.02235174447, -0.224, 0.098, -0.982, 192.0, 0.0, 0.0, 0.0, 0.0, 0.0, 0.0, 0.0, 0.0, 0.0, 1.67770595035331E9, 0.0, 2023-03-01 13:25:50.353
40.0, 30241.217343952343, 12085.722337451261, 0.0, -187500.02235174447, 0.0, 0.0, 0.0, -187500.02235174447, -0.224, 0.098, -0.982, 192.0, 0.0, 0.0, 0.0, 0.0, 0.0, 0.0, 0.0, 0.0, 0.0, 1.677705950353328E9, 0.0, 2023-03-01 13:25:50.353
41.0, 30232.8354397816, 12079.463849003774, 0.0, -187500.02235174447, 0.0, 0.0, 0.0, -187500.02235174447, -0.224, 0.098, -0.982, 192.0, 0.0, 0.0, 0.0, 0.0, 0.0, 0.0, 0.0, 0.0, 0.0, 1.677705950361358E9, 0.0, 2023-03-01 13:25:50.361
42.0, 30283.015106083767, 12146.049695736134, 0.0, -187500.02235174447, 0.0, 0.0, 0.0, -187500.02235174447, -0.224, 0.098, -0.982, 192.0, 0.0, 0.0, 0.0, 0.0, 0.0, 0.0, 0.0, 0.0, 0.0, 1.677705950361374E9, 0.0, 2023-03-01 13:25:50.361
43.0, 30299.443638258417, 12157.516140641706, 0.0, -187500.02235174447, 0.0, 0.0, 0.0, -187500.02235174447, -0.224, 0.098, -0.982, 192.0, 0.0, 0.0, 0.0, 0.0, 0.0, 0.0, 0.0, 0.0, 0.0, 1.677705950369359E9, 0.0, 2023-03-01 13:25:50.369
44.0, 30257.534117404717, 12093.411337543886, 0.0, -187500.02235174447, 0.0, 0.0, 0.0, -187500.02235174447, -0.224, 0.098, -0.982, 192.0, 0.0, 0.0, 0.0, 0.0, 0.0, 0.0, 0.0, 0.0, 0.0, 1.677705950369371E9, 0.0, 2023-03-01 13:25:50.369
45.0, 30232.32134965913, 12069.025584343146, 0.0, -187500.02235174447, 0.0, 0.0, 0.0, -187500.02235174447, -0.224, 0.098, -0.982, 192.0, 0.0, 0.0, 0.0, 0.0, 0.0, 0.0, 0.0, 0.0, 0.0, 1.677705950376372E9, 0.0, 2023-03-01 13:25:50.376
46.0, 30273.00152456779, 12130.023494961679, 0.0, -187500.02235174447, 0.0, 0.0, 0.0, -187500.02235174447, -0.226, 0.098, -0.98, 192.0, 248.0, 240.0, 3.0, 16.0, 225.0, 96.0, 0.0, 0.0, 0.0, 1.677705950376383E9, 0.0, 2023-03-01 13:25:50.376
47.0, 30294.839178900624, 12155.280966196176, 0.0, -187500.02235174447, 0.0, 0.0, 0.0, -187500.02235174447, -0.226, 0.098, -0.98, 192.0, 0.0, 0.0, 0.0, 0.0, 0.0, 0.0, 0.0, 0.0, 0.0, 1.677705950383993E9, 0.0, 2023-03-01 13:25:50.383
48.0, 30256.50593715977, 12102.150869625912, 0.0, -187500.02235174447, 0.0, 0.0, 0.0, -187500.02235174447, -0.226, 0.098, -0.98, 192.0, 0.0, 0.0, 0.0, 0.0, 0.0, 0.0, 0.0, 0.0, 0.0, 1.677705950384015E9, 0.0, 2023-03-01 13:25:50.384
49.0, 30219.9831867198, 12061.247177272699, 0.0, -187500.02235174447, 0.0, 0.0, 0.0, -187500.02235174447, -0.226, 0.098, -0.98, 192.0, 0.0, 0.0, 0.0, 0.0, 0.0, 0.0, 0.0, 0.0, 0.0, 1.677705950391973E9, 0.0, 2023-03-01 13:25:50.391
50.0, 30258.76346334976, 12113.930238953859, 0.0, -187500.02235174447, 0.0, 0.0, 0.0, -187500.02235174447, -0.226, 0.098, -0.98, 192.0, 0.0, 0.0, 0.0, 0.0, 0.0, 0.0, 0.0, 0.0, 0.0, 1.677705950391988E9, 0.0, 2023-03-01 13:25:50.391
51.0, 30294.07921958914, 12152.777570817181, 0.0, -187500.02235174447, 0.0, 0.0, 0.0, -187500.02235174447, -0.226, 0.098, -0.98, 192.0, 0.0, 0.0, 0.0, 0.0, 0.0, 0.0, 0.0, 0.0, 0.0, 1.677705950399925E9, 0.0, 2023-03-01 13:25:50.399
52.0, 30261.60213489558, 12103.313160337588, 0.0, -187500.02235174447, 0.0, 0.0, 0.0, -187500.02235174447, -0.226, 0.098, -0.98, 192.0, 0.0, 0.0, 0.0, 0.0, 0.0, 0.0, 0.0, 0.0, 0.0, 1.677705950399941E9, 0.0, 2023-03-01 13:25:50.399
53.0, 30224.27472165522, 12058.117933048956, 0.0, -187500.02235174447, 0.0, 0.0, 0.0, -187500.02235174447, -0.226, 0.098, -0.98, 192.0, 0.0, 0.0, 0.0, 0.0, 0.0, 0.0, 0.0, 0.0, 0.0, 1.677705950405915E9, 0.0, 2023-03-01 13:25:50.405
54.0, 30252.929658046924, 12101.927352181357, 0.0, -187500.02235174447, 0.0, 0.0, 0.0, -187500.02235174447, -0.226, 0.098, -0.98, 192.0, 0.0, 0.0, 0.0, 0.0, 0.0, 0.0, 0.0, 0.0, 0.0, 1.677705950405928E9, 0.0, 2023-03-01 13:25:50.405
55.0, 30299.644803958516, 12159.751315087238, 0.0, -187500.02235174447, 0.0, 0.0, 0.0, -187500.02235174447, -0.226, 0.098, -0.98, 192.0, 0.0, 0.0, 0.0, 0.0, 0.0, 0.0, 0.0, 0.0, 0.0, 1.677705950413532E9, 0.0, 2023-03-01 13:25:50.413
56.0, 30277.404818225485, 12127.49774783823, 0.0, -187500.02235174447, 0.0, 0.0, 0.0, -187500.02235174447, -0.222, 0.096, -0.984, 192.0, 249.0, 16.0, 3.0, 0.0, 225.0, 64.0, 0.0, 0.0, 0.0, 1.677705950421614E9, 0.0, 2023-03-01 13:25:50.421
57.0, 30230.488506613794, 12068.064459331568, 0.0, -187500.02235174447, 0.0, 0.0, 0.0, -187500.02235174447, -0.222, 0.096, -0.984, 192.0, 0.0, 0.0, 0.0, 0.0, 0.0, 0.0, 0.0, 0.0, 0.0, 1.677705950421627E9, 0.0, 2023-03-01 13:25:50.421
58.0, 30242.9384282754, 12088.851581675004, 0.0, -187500.02235174447, 0.0, 0.0, 0.0, -187500.02235174447, -0.222, 0.096, -0.984, 192.0, 0.0, 0.0, 0.0, 0.0, 0.0, 0.0, 0.0, 0.0, 0.0, 1.677705950429591E9, 0.0, 2023-03-01 13:25:50.429
59.0, 30296.47085624586, 12154.185730717867, 0.0, -187500.02235174447, 0.0, 0.0, 0.0, -187500.02235174447, -0.222, 0.096, -0.984, 192.0, 0.0, 0.0, 0.0, 0.0, 0.0, 0.0, 0.0, 0.0, 0.0, 1.677705950429608E9, 0.0, 2023-03-01 13:25:50.429
60.0, 30288.826559642144, 12138.584213088061, 0.0, -187500.02235174447, 0.0, 0.0, 0.0, -187500.02235174447, -0.222, 0.096, -0.984, 192.0, 0.0, 0.0, 0.0, 0.0, 0.0, 0.0, 0.0, 0.0, 0.0, 1.677705950436117E9, 0.0, 2023-03-01 13:25:50.436
61.0, 30222.374823376518, 12065.024622085646, 0.0, -187500.02235174447, 0.0, 0.0, 0.0, -187500.02235174447, -0.222, 0.096, -0.984, 192.0, 0.0, 0.0, 0.0, 0.0, 0.0, 0.0, 0.0, 0.0, 0.0, 1.677705950436133E9, 0.0, 2023-03-01 13:25:50.436
62.0, 30201.520645799716, 12057.514435948664, 0.0, -187500.02235174447, 0.0, 0.0, 0.0, -187500.02235174447, -0.222, 0.096, -0.984, 192.0, 0.0, 0.0, 0.0, 0.0, 0.0, 0.0, 0.0, 0.0, 0.0, 1.677705950444281E9, 0.0, 2023-03-01 13:25:50.444
63.0, 30240.233867196308, 12118.266477378187, 0.0, -187500.02235174447, 0.0, 0.0, 0.0, -187500.02235174447, -0.222, 0.096, -0.984, 192.0, 0.0, 0.0, 0.0, 0.0, 0.0, 0.0, 0.0, 0.0, 0.0, 1.677705950444295E9, 0.0, 2023-03-01 13:25:50.444
64.0, 30224.297073399674, 12100.318026580577, 0.0, -187500.02235174447, 0.0, 0.0, 0.0, -187500.02235174447, -0.222, 0.096, -0.984, 192.0, 0.0, 0.0, 0.0, 0.0, 0.0, 0.0, 0.0, 0.0, 0.0, 1.677705950452173E9, 0.0, 2023-03-01 13:25:50.452
65.0, 30155.38664524396, 12018.220069196233, 0.0, -187500.02235174447, 0.0, 0.0, 0.0, -187500.02235174447, -0.222, 0.096, -0.984, 192.0, 0.0, 0.0, 0.0, 0.0, 0.0, 0.0, 0.0, 0.0, 0.0, 1.677705950452188E9, 0.0, 2023-03-01 13:25:50.452
66.0, 30123.24483671723, 11994.817792751526, 0.0, -187500.02235174447, 0.0, 0.0, 0.0, -187500.02235174447, -0.226, 0.098, -0.986, 192.0, 248.0, 240.0, 3.0, 16.0, 225.0, 48.0, 0.0, 0.0, 0.0, 1.677705950459274E9, 0.0, 2023-03-01 13:25:50.459
67.0, 30145.39541547244, 12039.051895028579, 0.0, -187500.02235174447, 0.0, 0.0, 0.0, -187500.02235174447, -0.226, 0.098, -0.986, 192.0, 0.0, 0.0, 0.0, 0.0, 0.0, 0.0, 0.0, 0.0, 0.0, 1.677705950459283E9, 0.0, 2023-03-01 13:25:50.459
68.0, 30138.28756073565, 12037.062589772057, 0.0, -187500.02235174447, 0.0, 0.0, 0.0, -187500.02235174447, -0.226, 0.098, -0.986, 192.0, 0.0, 0.0, 0.0, 0.0, 0.0, 0.0, 0.0, 0.0, 0.0, 1.677705950466857E9, 0.0, 2023-03-01 13:25:50.466
69.0, 30071.120568647453, 11962.005431891135, 0.0, -187500.02235174447, 0.0, 0.0, 0.0, -187500.02235174447, -0.226, 0.098, -0.986, 192.0, 0.0, 0.0, 0.0, 0.0, 0.0, 0.0, 0.0, 0.0, 0.0, 1.677705950466877E9, 0.0, 2023-03-01 13:25:50.466
70.0, 30031.13329781691, 11931.651762920828, 0.0, -187500.02235174447, 0.0, 0.0, 0.0, -187500.02235174447, -0.226, 0.098, -0.986, 192.0, 0.0, 0.0, 0.0, 0.0, 0.0, 0.0, 0.0, 0.0, 0.0, 1.677705950473826E9, 0.0, 2023-03-01 13:25:50.473
71.0, 30072.729894248238, 11999.064624198036, 0.0, -187500.02235174447, 0.0, 0.0, 0.0, -187500.02235174447, -0.226, 0.098, -0.986, 192.0, 0.0, 0.0, 0.0, 0.0, 0.0, 0.0, 0.0, 0.0, 0.0, 1.677705950481974E9, 0.0, 2023-03-01 13:25:50.481
72.0, 30102.077734718056, 12034.335676948509, 0.0, -187500.02235174447, 0.0, 0.0, 0.0, -187500.02235174447, -0.226, 0.098, -0.986, 192.0, 0.0, 0.0, 0.0, 0.0, 0.0, 0.0, 0.0, 0.0, 0.0, 1.67770595048199E9, 0.0, 2023-03-01 13:25:50.481
73.0, 30062.023408654146, 11982.725499001206, 0.0, -187500.02235174447, 0.0, 0.0, 0.0, -187500.02235174447, -0.226, 0.098, -0.986, 192.0, 0.0, 0.0, 0.0, 0.0, 0.0, 0.0, 0.0, 0.0, 0.0, 1.67770595048847E9, 0.0, 2023-03-01 13:25:50.488
74.0, 30018.236341266198, 11935.630373433874, 0.0, -187500.02235174447, 0.0, 0.0, 0.0, -187500.02235174447, -0.226, 0.098, -0.986, 192.0, 0.0, 0.0, 0.0, 0.0, 0.0, 0.0, 0.0, 0.0, 0.0, 1.677705950488483E9, 0.0, 2023-03-01 13:25:50.488
75.0, 30057.843632441003, 11989.811001993538, 0.0, -187500.02235174447, 0.0, 0.0, 0.0, -187500.02235174447, -0.226, 0.098, -0.986, 192.0, 0.0, 0.0, 0.0, 0.0, 0.0, 0.0, 0.0, 0.0, 0.0, 1.677705950496458E9, 0.0, 2023-03-01 13:25:50.496
76.0, 30105.25168243071, 12045.712714876261, 0.0, -187500.02235174447, 0.0, 0.0, 0.0, -187500.02235174447, -0.224, 0.098, -0.982, 192.0, 249.0, 0.0, 3.0, 16.0, 225.0, 80.0, 0.0, 0.0, 0.0, 1.677705950496474E9, 0.0, 2023-03-01 13:25:50.496
77.0, 30075.65797277188, 12004.764319034139, 0.0, -187500.02235174447, 0.0, 0.0, 0.0, -187500.02235174447, -0.224, 0.098, -0.982, 192.0, 0.0, 0.0, 0.0, 0.0, 0.0, 0.0, 0.0, 0.0, 0.0, 1.677705950505798E9, 0.0, 2023-03-01 13:25:50.505
78.0, 30034.642521696394, 11955.03168762108, 0.0, -187500.02235174447, 0.0, 0.0, 0.0, -187500.02235174447, -0.224, 0.098, -0.982, 192.0, 0.0, 0.0, 0.0, 0.0, 0.0, 0.0, 0.0, 0.0, 0.0, 1.677705950505809E9, 0.0, 2023-03-01 13:25:50.505
79.0, 30068.37130407945, 12003.199696922267, 0.0, -187500.02235174447, 0.0, 0.0, 0.0, -187500.02235174447, -0.224, 0.098, -0.982, 192.0, 0.0, 0.0, 0.0, 0.0, 0.0, 0.0, 0.0, 0.0, 0.0, 1.677705950513004E9, 0.0, 2023-03-01 13:25:50.513
80.0, 30124.51888615118, 12068.444438987308, 0.0, -187500.02235174447, 0.0, 0.0, 0.0, -187500.02235174447, -0.224, 0.098, -0.982, 192.0, 0.0, 0.0, 0.0, 0.0, 0.0, 0.0, 0.0, 0.0, 0.0, 1.67770595051302E9, 0.0, 2023-03-01 13:25:50.513
81.0, 30103.307080663097, 12031.027618769123, 0.0, -187500.02235174447, 0.0, 0.0, 0.0, -187500.02235174447, -0.224, 0.098, -0.982, 192.0, 0.0, 0.0, 0.0, 0.0, 0.0, 0.0, 0.0, 0.0, 0.0, 1.677705950519157E9, 0.0, 2023-03-01 13:25:50.519
82.0, 30052.9933038942, 11965.425248792799, 0.0, -187500.02235174447, 0.0, 0.0, 0.0, -187500.02235174447, -0.224, 0.098, -0.982, 192.0, 0.0, 0.0, 0.0, 0.0, 0.0, 0.0, 0.0, 0.0, 0.0, 1.677705950519198E9, 0.0, 2023-03-01 13:25:50.519
83.0, 30075.590917538517, 11994.258999140144, 0.0, -187500.02235174447, 0.0, 0.0, 0.0, -187500.02235174447, -0.224, 0.098, -0.982, 192.0, 0.0, 0.0, 0.0, 0.0, 0.0, 0.0, 0.0, 0.0, 0.0, 1.677705950527246E9, 0.0, 2023-03-01 13:25:50.527
84.0, 30138.175802013375, 12068.802066898594, 0.0, -187500.02235174447, 0.0, 0.0, 0.0, -187500.02235174447, -0.224, 0.098, -0.982, 192.0, 0.0, 0.0, 0.0, 0.0, 0.0, 0.0, 0.0, 0.0, 0.0, 1.677705950527261E9, 0.0, 2023-03-01 13:25:50.527
85.0, 30134.733633367257, 12055.659241158872, 0.0, -187500.02235174447, 0.0, 0.0, 0.0, -187500.02235174447, -0.224, 0.098, -0.982, 192.0, 0.0, 0.0, 0.0, 0.0, 0.0, 0.0, 0.0, 0.0, 0.0, 1.67770595053413E9, 0.0, 2023-03-01 13:25:50.534
86.0, 30083.548138564605, 11988.916932215327, 0.0, -187500.02235174447, 0.0, 0.0, 0.0, -187500.02235174447, -0.222, 0.098, -0.978, 192.0, 249.0, 16.0, 3.0, 16.0, 225.0, 112.0, 0.0, 0.0, 0.0, 1.677705950541125E9, 0.0, 2023-03-01 13:25:50.541
87.0, 30084.308097876085, 11995.689510785283, 0.0, -187500.02235174447, 0.0, 0.0, 0.0, -187500.02235174447, -0.222, 0.098, -0.978, 192.0, 0.0, 0.0, 0.0, 0.0, 0.0, 0.0, 0.0, 0.0, 0.0, 1.677705950541135E9, 0.0, 2023-03-01 13:25:50.541
88.0, 30139.941589825346, 12064.28701451862, 0.0, -187500.02235174447, 0.0, 0.0, 0.0, -187500.02235174447, -0.222, 0.098, -0.978, 192.0, 0.0, 0.0, 0.0, 0.0, 0.0, 0.0, 0.0, 0.0, 0.0, 1.677705950548698E9, 0.0, 2023-03-01 13:25:50.548
89.0, 30150.11163355251, 12070.143171565911, 0.0, -187500.02235174447, 0.0, 0.0, 0.0, -187500.02235174447, -0.222, 0.098, -0.978, 192.0, 0.0, 0.0, 0.0, 0.0, 0.0, 0.0, 0.0, 0.0, 0.0, 1.677705950548712E9, 0.0, 2023-03-01 13:25:50.548
90.0, 30104.96110975279, 12008.228839424712, 0.0, -187500.02235174447, 0.0, 0.0, 0.0, -187500.02235174447, -0.222, 0.098, -0.978, 192.0, 0.0, 0.0, 0.0, 0.0, 0.0, 0.0, 0.0, 0.0, 0.0, 1.677705950556843E9, 0.0, 2023-03-01 13:25:50.556
91.0, 30094.411086369884, 11997.589409063985, 0.0, -187500.02235174447, 0.0, 0.0, 0.0, -187500.02235174447, -0.222, 0.098, -0.978, 192.0, 0.0, 0.0, 0.0, 0.0, 0.0, 0.0, 0.0, 0.0, 0.0, 1.677705950556866E9, 0.0, 2023-03-01 13:25:50.556
92.0, 30153.44204347635, 12072.82538090055, 0.0, -187500.02235174447, 0.0, 0.0, 0.0, -187500.02235174447, -0.222, 0.098, -0.978, 192.0, 0.0, 0.0, 0.0, 0.0, 0.0, 0.0, 0.0, 0.0, 0.0, 1.677705950564737E9, 0.0, 2023-03-01 13:25:50.564
93.0, 30179.303011811142, 12095.668863733872, 0.0, -187500.02235174447, 0.0, 0.0, 0.0, -187500.02235174447, -0.222, 0.098, -0.978, 192.0, 0.0, 0.0, 0.0, 0.0, 0.0, 0.0, 0.0, 0.0, 0.0, 1.677705950564753E9, 0.0, 2023-03-01 13:25:50.564
94.0, 30143.29435149364, 12042.359953207964, 0.0, -187500.02235174447, 0.0, 0.0, 0.0, -187500.02235174447, -0.222, 0.098, -0.978, 192.0, 0.0, 0.0, 0.0, 0.0, 0.0, 0.0, 0.0, 0.0, 0.0, 1.677705950571322E9, 0.0, 2023-03-01 13:25:50.571
95.0, 30123.982444284255, 12021.170499464333, 0.0, -187500.02235174447, 0.0, 0.0, 0.0, -187500.02235174447, -0.222, 0.098, -0.978, 192.0, 0.0, 0.0, 0.0, 0.0, 0.0, 0.0, 0.0, 0.0, 0.0, 1.677705950571332E9, 0.0, 2023-03-01 13:25:50.571
96.0, 30175.123235598, 12088.002215385703, 0.0, -187500.02235174447, 0.0, 0.0, 0.0, -187500.02235174447, -0.232, 0.094, -0.982, 192.0, 248.0, 192.0, 2.0, 240.0, 225.0, 80.0, 0.0, 0.0, 0.0, 1.677705950579504E9, 0.0, 2023-03-01 13:25:50.579
97.0, 30210.349584859563, 12126.246050148733, 0.0, -187500.02235174447, 0.0, 0.0, 0.0, -187500.02235174447, -0.232, 0.094, -0.982, 192.0, 0.0, 0.0, 0.0, 0.0, 0.0, 0.0, 0.0, 0.0, 0.0, 1.67770595057952E9, 0.0, 2023-03-01 13:25:50.579
98.0, 30172.575136730095, 12073.138305322922, 0.0, -187500.02235174447, 0.0, 0.0, 0.0, -187500.02235174447, -0.232, 0.094, -0.982, 192.0, 0.0, 0.0, 0.0, 0.0, 0.0, 0.0, 0.0, 0.0, 0.0, 1.67770595058734E9, 0.0, 2023-03-01 13:25:50.587
99.0, 30134.39835720043, 12033.307496703566, 0.0, -187500.02235174447, 0.0, 0.0, 0.0, -187500.02235174447, -0.232, 0.094, -0.982, 192.0, 0.0, 0.0, 0.0, 0.0, 0.0, 0.0, 0.0, 0.0, 0.0, 1.677705950587349E9, 0.0, 2023-03-01 13:25:50.587
100.0, 30173.580965230583, 12089.477430519752, 0.0, -187500.02235174447, 0.0, 0.0, 0.0, -187500.02235174447, -0.232, 0.094, -0.982, 192.0, 0.0, 0.0, 0.0, 0.0, 0.0, 0.0, 0.0, 0.0, 0.0, 1.677705950594423E9, 0.0, 2023-03-01 13:25:50.594
101.0, 30216.630425051502, 12138.852434021526, 0.0, -187500.02235174447, 0.0, 0.0, 0.0, -187500.02235174447, -0.232, 0.094, -0.982, 192.0, 0.0, 0.0, 0.0, 0.0, 0.0, 0.0, 0.0, 0.0, 0.0, 1.677705950601058E9, 0.0, 2023-03-01 13:25:50.601
102.0, 30193.138741628976, 12100.519192280673, 0.0, -187500.02235174447, 0.0, 0.0, 0.0, -187500.02235174447, -0.232, 0.094, -0.982, 192.0, 0.0, 0.0, 0.0, 0.0, 0.0, 0.0, 0.0, 0.0, 0.0, 1.677705950601072E9, 0.0, 2023-03-01 13:25:50.601
103.0, 30154.15729929892, 12049.020773055647, 0.0, -187500.02235174447, 0.0, 0.0, 0.0, -187500.02235174447, -0.232, 0.094, -0.982, 192.0, 0.0, 0.0, 0.0, 0.0, 0.0, 0.0, 0.0, 0.0, 0.0, 1.677705950609203E9, 0.0, 2023-03-01 13:25:50.609
104.0, 30181.962869401323, 12089.522134008663, 0.0, -187500.02235174447, 0.0, 0.0, 0.0, -187500.02235174447, -0.232, 0.094, -0.982, 192.0, 0.0, 0.0, 0.0, 0.0, 0.0, 0.0, 0.0, 0.0, 0.0, 1.677705950609219E9, 0.0, 2023-03-01 13:25:50.609
105.0, 30232.008425236756, 12149.983602760269, 0.0, -187500.02235174447, 0.0, 0.0, 0.0, -187500.02235174447, -0.232, 0.094, -0.982, 192.0, 0.0, 0.0, 0.0, 0.0, 0.0, 0.0, 0.0, 0.0, 0.0, 1.67770595061717E9, 0.0, 2023-03-01 13:25:50.617
106.0, 30212.540055816182, 12119.406416345408, 0.0, -187500.02235174447, 0.0, 0.0, 0.0, -187500.02235174447, -0.22, 0.092, -0.98, 192.0, 249.0, 32.0, 2.0, 224.0, 225.0, 96.0, 0.0, 0.0, 0.0, 1.677705950617181E9, 0.0, 2023-03-01 13:25:50.617
107.0, 30164.282639537174, 12058.497912704697, 0.0, -187500.02235174447, 0.0, 0.0, 0.0, -187500.02235174447, -0.22, 0.092, -0.98, 192.0, 0.0, 0.0, 0.0, 0.0, 0.0, 0.0, 0.0, 0.0, 0.0, 1.67770595062356E9, 0.0, 2023-03-01 13:25:50.623
108.0, 30181.091151367564, 12084.135363594934, 0.0, -187500.02235174447, 0.0, 0.0, 0.0, -187500.02235174447, -0.22, 0.092, -0.98, 192.0, 0.0, 0.0, 0.0, 0.0, 0.0, 0.0, 0.0, 0.0, 0.0, 1.677705950623571E9, 0.0, 2023-03-01 13:25:50.623
109.0, 30242.804317808666, 12160.891254054459, 0.0, -187500.02235174447, 0.0, 0.0, 0.0, -187500.02235174447, -0.22, 0.092, -0.98, 192.0, 0.0, 0.0, 0.0, 0.0, 0.0, 0.0, 0.0, 0.0, 0.0, 1.677705950631746E9, 0.0, 2023-03-01 13:25:50.631
110.0, 30239.742128818292, 12147.591966103551, 0.0, -187500.02235174447, 0.0, 0.0, 0.0, -187500.02235174447, -0.22, 0.092, -0.98, 192.0, 0.0, 0.0, 0.0, 0.0, 0.0, 0.0, 0.0, 0.0, 0.0, 1.677705950631755E9, 0.0, 2023-03-01 13:25:50.631
111.0, 30191.484712539284, 12081.184933326833, 0.0, -187500.02235174447, 0.0, 0.0, 0.0, -187500.02235174447, -0.22, 0.092, -0.98, 192.0, 0.0, 0.0, 0.0, 0.0, 0.0, 0.0, 0.0, 0.0, 0.0, 1.67770595063971E9, 0.0, 2023-03-01 13:25:50.639
112.0, 30195.08334339659, 12091.220866587266, 0.0, -187500.02235174447, 0.0, 0.0, 0.0, -187500.02235174447, -0.22, 0.092, -0.98, 192.0, 0.0, 0.0, 0.0, 0.0, 0.0, 0.0, 0.0, 0.0, 0.0, 1.677705950639729E9, 0.0, 2023-03-01 13:25:50.639
113.0, 30247.31937018864, 12160.377163931986, 0.0, -187500.02235174447, 0.0, 0.0, 0.0, -187500.02235174447, -0.22, 0.092, -0.98, 192.0, 0.0, 0.0, 0.0, 0.0, 0.0, 0.0, 0.0, 0.0, 0.0, 1.677705950646723E9, 0.0, 2023-03-01 13:25:50.646
114.0, 30252.16969873544, 12159.371335431497, 0.0, -187500.02235174447, 0.0, 0.0, 0.0, -187500.02235174447, -0.22, 0.092, -0.98, 192.0, 0.0, 0.0, 0.0, 0.0, 0.0, 0.0, 0.0, 0.0, 0.0, 1.677705950646737E9, 0.0, 2023-03-01 13:25:50.646
115.0, 30207.60032029156, 12098.306369579599, 0.0, -187500.02235174447, 0.0, 0.0, 0.0, -187500.02235174447, -0.22, 0.092, -0.98, 192.0, 0.0, 0.0, 0.0, 0.0, 0.0, 0.0, 0.0, 0.0, 0.0, 1.677705950653377E9, 0.0, 2023-03-01 13:25:50.653
116.0, 30193.0269829067, 12086.616407229472, 0.0, -187500.02235174447, 0.0, 0.0, 0.0, -187500.02235174447, -0.22, 0.092, -0.98, 192.0, 0.0, 0.0, 0.0, 0.0, 0.0, 0.0, 0.0, 0.0, 0.0, 1.677705950653395E9, 0.0, 2023-03-01 13:25:50.653
117.0, 30248.973399278333, 12159.103114498033, 0.0, -187500.02235174447, 0.0, 0.0, 0.0, -187500.02235174447, -0.222, 0.092, -0.984, 192.0, 249.0, 16.0, 2.0, 224.0, 225.0, 64.0, 0.0, 0.0, 0.0, 1.67770595066146E9, 0.0, 2023-03-01 13:25:50.661
118.0, 30271.861585600567, 12181.991300820267, 0.0, -187500.02235174447, 0.0, 0.0, 0.0, -187500.02235174447, -0.222, 0.092, -0.984, 192.0, 0.0, 0.0, 0.0, 0.0, 0.0, 0.0, 0.0, 0.0, 0.0, 1.677705950669374E9, 0.0, 2023-03-01 13:25:50.669
119.0, 30226.912227500943, 12121.30631462411, 0.0, -187500.02235174447, 0.0, 0.0, 0.0, -187500.02235174447, -0.222, 0.092, -0.984, 192.0, 0.0, 0.0, 0.0, 0.0, 0.0, 0.0, 0.0, 0.0, 0.0, 1.677705950669388E9, 0.0, 2023-03-01 13:25:50.669
120.0, 30197.385573075484, 12089.455078775298, 0.0, -187500.02235174447, 0.0, 0.0, 0.0, -187500.02235174447, -0.222, 0.092, -0.984, 192.0, 0.0, 0.0, 0.0, 0.0, 0.0, 0.0, 0.0, 0.0, 0.0, 1.677705950676411E9, 0.0, 2023-03-01 13:25:50.676
121.0, 30243.56427712015, 12151.503521383229, 0.0, -187500.02235174447, 0.0, 0.0, 0.0, -187500.02235174447, -0.222, 0.092, -0.984, 192.0, 0.0, 0.0, 0.0, 0.0, 0.0, 0.0, 0.0, 0.0, 0.0, 1.67770595067642E9, 0.0, 2023-03-01 13:25:50.676
122.0, 30272.42037921195, 12182.281873498187, 0.0, -187500.02235174447, 0.0, 0.0, 0.0, -187500.02235174447, -0.222, 0.092, -0.984, 192.0, 0.0, 0.0, 0.0, 0.0, 0.0, 0.0, 0.0, 0.0, 0.0, 1.677705950683894E9, 0.0, 2023-03-01 13:25:50.683
123.0, 30236.97051250583, 12128.72709378327, 0.0, -187500.02235174447, 0.0, 0.0, 0.0, -187500.02235174447, -0.222, 0.092, -0.984, 192.0, 0.0, 0.0, 0.0, 0.0, 0.0, 0.0, 0.0, 0.0, 0.0, 1.677705950683916E9, 0.0, 2023-03-01 13:25:50.683
124.0, 30199.73250624329, 12083.800087428104, 0.0, -187500.02235174447, 0.0, 0.0, 0.0, -187500.02235174447, -0.222, 0.092, -0.984, 192.0, 0.0, 0.0, 0.0, 0.0, 0.0, 0.0, 0.0, 0.0, 0.0, 1.677705950691991E9, 0.0, 2023-03-01 13:25:50.691
125.0, 30234.355358404562, 12136.706666553817, 0.0, -187500.02235174447, 0.0, 0.0, 0.0, -187500.02235174447, -0.222, 0.092, -0.984, 192.0, 0.0, 0.0, 0.0, 0.0, 0.0, 0.0, 0.0, 0.0, 0.0, 1.677705950692006E9, 0.0, 2023-03-01 13:25:50.692
126.0, 30277.337762992116, 12192.608379436539, 0.0, -187500.02235174447, 0.0, 0.0, 0.0, -187500.02235174447, -0.222, 0.092, -0.984, 192.0, 0.0, 0.0, 0.0, 0.0, 0.0, 0.0, 0.0, 0.0, 0.0, 1.677705950700026E9, 0.0, 2023-03-01 13:25:50.700
127.0, 30251.32033244614, 12152.419942905897, 0.0, -187500.02235174447, 0.0, 0.0, 0.0, -187500.02235174447, -0.222, 0.08600000000000001, -0.986, 192.0, 249.0, 16.0, 2.0, 176.0, 225.0, 48.0, 0.0, 0.0, 0.0, 1.677705950700042E9, 0.0, 2023-03-01 13:25:50.700
128.0, 30204.225206878808, 12095.646511989416, 0.0, -187500.02235174447, 0.0, 0.0, 0.0, -187500.02235174447, -0.222, 0.08600000000000001, -0.986, 192.0, 0.0, 0.0, 0.0, 0.0, 0.0, 0.0, 0.0, 0.0, 0.0, 1.677705950706612E9, 0.0, 2023-03-01 13:25:50.706
129.0, 30227.716890301337, 12132.30337289612, 0.0, -187500.02235174447, 0.0, 0.0, 0.0, -187500.02235174447, -0.222, 0.08600000000000001, -0.986, 192.0, 0.0, 0.0, 0.0, 0.0, 0.0, 0.0, 0.0, 0.0, 0.0, 1.677705950706622E9, 0.0, 2023-03-01 13:25:50.706
130.0, 30280.489358960316, 12196.676396927405, 0.0, -187500.02235174447, 0.0, 0.0, 0.0, -187500.02235174447, -0.222, 0.08600000000000001, -0.986, 192.0, 0.0, 0.0, 0.0, 0.0, 0.0, 0.0, 0.0, 0.0, 0.0, 1.677705950714606E9, 0.0, 2023-03-01 13:25:50.714
131.0, 30259.18814649441, 12165.071030267602, 0.0, -187500.02235174447, 0.0, 0.0, 0.0, -187500.02235174447, -0.222, 0.08600000000000001, -0.986, 192.0, 0.0, 0.0, 0.0, 0.0, 0.0, 0.0, 0.0, 0.0, 0.0, 1.677705950714644E9, 0.0, 2023-03-01 13:25:50.714
132.0, 30206.9297679579, 12101.480317292253, 0.0, -187500.02235174447, 0.0, 0.0, 0.0, -187500.02235174447, -0.222, 0.08600000000000001, -0.986, 192.0, 0.0, 0.0, 0.0, 0.0, 0.0, 0.0, 0.0, 0.0, 0.0, 1.677705950721621E9, 0.0, 2023-03-01 13:25:50.721
133.0, 30211.757744760245, 12120.367541356987, 0.0, -187500.02235174447, 0.0, 0.0, 0.0, -187500.02235174447, -0.222, 0.08600000000000001, -0.986, 192.0, 0.0, 0.0, 0.0, 0.0, 0.0, 0.0, 0.0, 0.0, 0.0, 1.677705950729551E9, 0.0, 2023-03-01 13:25:50.729
134.0, 30261.64683838449, 12185.656986910939, 0.0, -187500.02235174447, 0.0, 0.0, 0.0, -187500.02235174447, -0.222, 0.08600000000000001, -0.986, 192.0, 0.0, 0.0, 0.0, 0.0, 0.0, 0.0, 0.0, 0.0, 0.0, 1.67770595072957E9, 0.0, 2023-03-01 13:25:50.729
135.0, 30262.809129096167, 12174.726983872293, 0.0, -187500.02235174447, 0.0, 0.0, 0.0, -187500.02235174447, -0.222, 0.08600000000000001, -0.986, 192.0, 0.0, 0.0, 0.0, 0.0, 0.0, 0.0, 0.0, 0.0, 0.0, 1.677705950736269E9, 0.0, 2023-03-01 13:25:50.736
136.0, 30216.07163144012, 12108.476413306764, 0.0, -187500.02235174447, 0.0, 0.0, 0.0, -187500.02235174447, -0.222, 0.08600000000000001, -0.986, 192.0, 0.0, 0.0, 0.0, 0.0, 0.0, 0.0, 0.0, 0.0, 0.0, 1.677705950736285E9, 0.0, 2023-03-01 13:25:50.736
137.0, 30212.607111049547, 12107.135308639445, 0.0, -187500.02235174447, 0.0, 0.0, 0.0, -187500.02235174447, -0.228, 0.08600000000000001, -0.986, 192.0, 248.0, 224.0, 2.0, 176.0, 225.0, 48.0, 0.0, 0.0, 0.0, 1.677705950744158E9, 0.0, 2023-03-01 13:25:50.744
138.0, 30265.55839366417, 12179.331443230087, 0.0, -187500.02235174447, 0.0, 0.0, 0.0, -187500.02235174447, -0.228, 0.08600000000000001, -0.986, 192.0, 0.0, 0.0, 0.0, 0.0, 0.0, 0.0, 0.0, 0.0, 0.0, 1.677705950744173E9, 0.0, 2023-03-01 13:25:50.744
139.0, 30277.874204859047, 12186.953388089347, 0.0, -187500.02235174447, 0.0, 0.0, 0.0, -187500.02235174447, -0.228, 0.08600000000000001, -0.986, 192.0, 0.0, 0.0, 0.0, 0.0, 0.0, 0.0, 0.0, 0.0, 0.0, 1.677705950752147E9, 0.0, 2023-03-01 13:25:50.752
140.0, 30232.88014327051, 12124.703779781315, 0.0, -187500.02235174447, 0.0, 0.0, 0.0, -187500.02235174447, -0.228, 0.08600000000000001, -0.986, 192.0, 0.0, 0.0, 0.0, 0.0, 0.0, 0.0, 0.0, 0.0, 0.0, 1.677705950752164E9, 0.0, 2023-03-01 13:25:50.752
141.0, 30209.63432903699, 12105.280113849654, 0.0, -187500.02235174447, 0.0, 0.0, 0.0, -187500.02235174447, -0.228, 0.08600000000000001, -0.986, 192.0, 0.0, 0.0, 0.0, 0.0, 0.0, 0.0, 0.0, 0.0, 0.0, 1.677705950759288E9, 0.0, 2023-03-01 13:25:50.759
142.0, 30255.52246040374, 12170.211931492322, 0.0, -187500.02235174447, 0.0, 0.0, 0.0, -187500.02235174447, -0.228, 0.08600000000000001, -0.986, 192.0, 0.0, 0.0, 0.0, 0.0, 0.0, 0.0, 0.0, 0.0, 0.0, 1.677705950759297E9, 0.0, 2023-03-01 13:25:50.759
143.0, 30276.644858914, 12191.647254424961, 0.0, -187500.02235174447, 0.0, 0.0, 0.0, -187500.02235174447, -0.228, 0.08600000000000001, -0.986, 192.0, 0.0, 0.0, 0.0, 0.0, 0.0, 0.0, 0.0, 0.0, 0.0, 1.677705950766959E9, 0.0, 2023-03-01 13:25:50.766
144.0, 30233.371881648527, 12128.615335060995, 0.0, -187500.02235174447, 0.0, 0.0, 0.0, -187500.02235174447, -0.228, 0.08600000000000001, -0.986, 192.0, 0.0, 0.0, 0.0, 0.0, 0.0, 0.0, 0.0, 0.0, 0.0, 1.677705950766976E9, 0.0, 2023-03-01 13:25:50.766
145.0, 30204.247558623265, 12094.752442211206, 0.0, -187500.02235174447, 0.0, 0.0, 0.0, -187500.02235174447, -0.228, 0.08600000000000001, -0.986, 192.0, 0.0, 0.0, 0.0, 0.0, 0.0, 0.0, 0.0, 0.0, 0.0, 1.677705950774746E9, 0.0, 2023-03-01 13:25:50.774
146.0, 30250.850945812577, 12155.839759807559, 0.0, -187500.02235174447, 0.0, 0.0, 0.0, -187500.02235174447, -0.228, 0.08600000000000001, -0.986, 192.0, 0.0, 0.0, 0.0, 0.0, 0.0, 0.0, 0.0, 0.0, 0.0, 1.677705950774768E9, 0.0, 2023-03-01 13:25:50.774
147.0, 30286.412571240973, 12197.481059727796, 0.0, -187500.02235174447, 0.0, 0.0, 0.0, -187500.02235174447, -0.23, 0.094, -0.984, 192.0, 248.0, 208.0, 2.0, 240.0, 225.0, 64.0, 0.0, 0.0, 0.0, 1.677705950781903E9, 0.0, 2023-03-01 13:25:50.781
148.0, 30251.141518490498, 12146.78730330316, 0.0, -187500.02235174447, 0.0, 0.0, 0.0, -187500.02235174447, -0.23, 0.094, -0.984, 192.0, 0.0, 0.0, 0.0, 0.0, 0.0, 0.0, 0.0, 0.0, 0.0, 1.677705950789E9, 0.0, 2023-03-01 13:25:50.789
149.0, 30208.74025925878, 12099.736881224739, 0.0, -187500.02235174447, 0.0, 0.0, 0.0, -187500.02235174447, -0.23, 0.094, -0.984, 192.0, 0.0, 0.0, 0.0, 0.0, 0.0, 0.0, 0.0, 0.0, 0.0, 1.67770595078901E9, 0.0, 2023-03-01 13:25:50.789
150.0, 30238.40102415097, 12150.02830624918, 0.0, -187500.02235174447, 0.0, 0.0, 0.0, -187500.02235174447, -0.23, 0.094, -0.984, 192.0, 0.0, 0.0, 0.0, 0.0, 0.0, 0.0, 0.0, 0.0, 0.0, 1.677705950796514E9, 0.0, 2023-03-01 13:25:50.796
151.0, 30279.03649557072, 12197.190487049877, 0.0, -187500.02235174447, 0.0, 0.0, 0.0, -187500.02235174447, -0.23, 0.094, -0.984, 192.0, 0.0, 0.0, 0.0, 0.0, 0.0, 0.0, 0.0, 0.0, 0.0, 1.677705950796528E9, 0.0, 2023-03-01 13:25:50.796
152.0, 30253.55550689167, 12155.504483640729, 0.0, -187500.02235174447, 0.0, 0.0, 0.0, -187500.02235174447, -0.23, 0.094, -0.984, 192.0, 0.0, 0.0, 0.0, 0.0, 0.0, 0.0, 0.0, 0.0, 0.0, 1.677705950804375E9, 0.0, 2023-03-01 13:25:50.804
153.0, 30206.16980864642, 12095.400642800409, 0.0, -187500.02235174447, 0.0, 0.0, 0.0, -187500.02235174447, -0.23, 0.094, -0.984, 192.0, 0.0, 0.0, 0.0, 0.0, 0.0, 0.0, 0.0, 0.0, 0.0, 1.677705950804386E9, 0.0, 2023-03-01 13:25:50.804
154.0, 30232.008425236756, 12134.605602575017, 0.0, -187500.02235174447, 0.0, 0.0, 0.0, -187500.02235174447, -0.23, 0.094, -0.984, 192.0, 0.0, 0.0, 0.0, 0.0, 0.0, 0.0, 0.0, 0.0, 0.0, 1.677705950811394E9, 0.0, 2023-03-01 13:25:50.811
155.0, 30288.200710797395, 12202.59960920806, 0.0, -187500.02235174447, 0.0, 0.0, 0.0, -187500.02235174447, -0.23, 0.094, -0.984, 192.0, 0.0, 0.0, 0.0, 0.0, 0.0, 0.0, 0.0, 0.0, 0.0, 1.677705950811413E9, 0.0, 2023-03-01 13:25:50.811
156.0, 30273.269745501253, 12176.872751340003, 0.0, -187500.02235174447, 0.0, 0.0, 0.0, -187500.02235174447, -0.23, 0.094, -0.984, 192.0, 0.0, 0.0, 0.0, 0.0, 0.0, 0.0, 0.0, 0.0, 0.0, 1.677705950819074E9, 0.0, 2023-03-01 13:25:50.819
157.0, 30227.538076345692, 12116.791262244138, 0.0, -187500.02235174447, 0.0, 0.0, 0.0, -187500.02235174447, -0.23, 0.1, -0.984, 192.0, 248.0, 208.0, 3.0, 32.0, 225.0, 64.0, 0.0, 0.0, 0.0, 1.677705950819091E9, 0.0, 2023-03-01 13:25:50.819
158.0, 30232.88014327051, 12132.482186851763, 0.0, -187500.02235174447, 0.0, 0.0, 0.0, -187500.02235174447, -0.23, 0.1, -0.984, 192.0, 0.0, 0.0, 0.0, 0.0, 0.0, 0.0, 0.0, 0.0, 0.0, 1.677705950827183E9, 0.0, 2023-03-01 13:25:50.827
159.0, 30283.216271783862, 12198.106908572545, 0.0, -187500.02235174447, 0.0, 0.0, 0.0, -187500.02235174447, -0.23, 0.1, -0.984, 192.0, 0.0, 0.0, 0.0, 0.0, 0.0, 0.0, 0.0, 0.0, 0.0, 1.677705950827198E9, 0.0, 2023-03-01 13:25:50.827
160.0, 30278.23183277033, 12185.701690399848, 0.0, -187500.02235174447, 0.0, 0.0, 0.0, -187500.02235174447, -0.23, 0.1, -0.984, 192.0, 0.0, 0.0, 0.0, 0.0, 0.0, 0.0, 0.0, 0.0, 0.0, 1.677705950835232E9, 0.0, 2023-03-01 13:25:50.835
161.0, 30224.006500721756, 12116.858317477503, 0.0, -187500.02235174447, 0.0, 0.0, 0.0, -187500.02235174447, -0.23, 0.1, -0.984, 192.0, 0.0, 0.0, 0.0, 0.0, 0.0, 0.0, 0.0, 0.0, 0.0, 1.677705950835245E9, 0.0, 2023-03-01 13:25:50.835
162.0, 30211.958910460344, 12111.024512174668, 0.0, -187500.02235174447, 0.0, 0.0, 0.0, -187500.02235174447, -0.23, 0.1, -0.984, 192.0, 0.0, 0.0, 0.0, 0.0, 0.0, 0.0, 0.0, 0.0, 0.0, 1.677705950841297E9, 0.0, 2023-03-01 13:25:50.841
163.0, 30261.713893617856, 12175.956329817334, 0.0, -187500.02235174447, 0.0, 0.0, 0.0, -187500.02235174447, -0.23, 0.1, -0.984, 192.0, 0.0, 0.0, 0.0, 0.0, 0.0, 0.0, 0.0, 0.0, 0.0, 1.677705950848716E9, 0.0, 2023-03-01 13:25:50.848
164.0, 30274.36498097956, 12187.266312511721, 0.0, -187500.02235174447, 0.0, 0.0, 0.0, -187500.02235174447, -0.23, 0.1, -0.984, 192.0, 0.0, 0.0, 0.0, 0.0, 0.0, 0.0, 0.0, 0.0, 0.0, 1.677705950848726E9, 0.0, 2023-03-01 13:25:50.848
165.0, 30232.433108381407, 12130.649343806428, 0.0, -187500.02235174447, 0.0, 0.0, 0.0, -187500.02235174447, -0.23, 0.1, -0.984, 192.0, 0.0, 0.0, 0.0, 0.0, 0.0, 0.0, 0.0, 0.0, 0.0, 1.677705950856645E9, 0.0, 2023-03-01 13:25:50.856
166.0, 30215.378727362007, 12110.912753452392, 0.0, -187500.02235174447, 0.0, 0.0, 0.0, -187500.02235174447, -0.23, 0.1, -0.984, 192.0, 0.0, 0.0, 0.0, 0.0, 0.0, 0.0, 0.0, 0.0, 0.0, 1.67770595085666E9, 0.0, 2023-03-01 13:25:50.856
167.0, 30270.989867566812, 12181.83483860908, 0.0, -187500.02235174447, 0.0, 0.0, 0.0, -187500.02235174447, -0.226, 0.098, -0.984, 192.0, 248.0, 240.0, 3.0, 16.0, 225.0, 64.0, 0.0, 0.0, 0.0, 1.677705950864901E9, 0.0, 2023-03-01 13:25:50.864
168.0, 30298.460161502382, 12209.03691161119, 0.0, -187500.02235174447, 0.0, 0.0, 0.0, -187500.02235174447, -0.226, 0.098, -0.984, 192.0, 0.0, 0.0, 0.0, 0.0, 0.0, 0.0, 0.0, 0.0, 0.0, 1.677705950864918E9, 0.0, 2023-03-01 13:25:50.864
169.0, 30255.388349937006, 12149.424809148886, 0.0, -187500.02235174447, 0.0, 0.0, 0.0, -187500.02235174447, -0.226, 0.098, -0.984, 192.0, 0.0, 0.0, 0.0, 0.0, 0.0, 0.0, 0.0, 0.0, 0.0, 1.677705950871394E9, 0.0, 2023-03-01 13:25:50.871
170.0, 30221.659567553947, 12111.024512174668, 0.0, -187500.02235174447, 0.0, 0.0, 0.0, -187500.02235174447, -0.226, 0.098, -0.984, 192.0, 0.0, 0.0, 0.0, 0.0, 0.0, 0.0, 0.0, 0.0, 0.0, 1.677705950871406E9, 0.0, 2023-03-01 13:25:50.871
171.0, 30263.07735002963, 12170.1225245145, 0.0, -187500.02235174447, 0.0, 0.0, 0.0, -187500.02235174447, -0.226, 0.098, -0.984, 192.0, 0.0, 0.0, 0.0, 0.0, 0.0, 0.0, 0.0, 0.0, 0.0, 1.677705950879378E9, 0.0, 2023-03-01 13:25:50.879
172.0, 30293.989812611322, 12207.382882521497, 0.0, -187500.02235174447, 0.0, 0.0, 0.0, -187500.02235174447, -0.226, 0.098, -0.984, 192.0, 0.0, 0.0, 0.0, 0.0, 0.0, 0.0, 0.0, 0.0, 0.0, 1.677705950879394E9, 0.0, 2023-03-01 13:25:50.879
173.0, 30261.155100006476, 12160.153646487433, 0.0, -187500.02235174447, 0.0, 0.0, 0.0, -187500.02235174447, -0.226, 0.098, -0.984, 192.0, 0.0, 0.0, 0.0, 0.0, 0.0, 0.0, 0.0, 0.0, 0.0, 1.677705950887454E9, 0.0, 2023-03-01 13:25:50.887
174.0, 30220.07259369762, 12109.929276696359, 0.0, -187500.02235174447, 0.0, 0.0, 0.0, -187500.02235174447, -0.226, 0.098, -0.984, 192.0, 0.0, 0.0, 0.0, 0.0, 0.0, 0.0, 0.0, 0.0, 0.0, 1.677705950887466E9, 0.0, 2023-03-01 13:25:50.887
175.0, 30247.297018444184, 12151.436466149864, 0.0, -187500.02235174447, 0.0, 0.0, 0.0, -187500.02235174447, -0.226, 0.098, -0.984, 192.0, 0.0, 0.0, 0.0, 0.0, 0.0, 0.0, 0.0, 0.0, 0.0, 1.677705950894657E9, 0.0, 2023-03-01 13:25:50.894
176.0, 30290.212367798373, 12204.70067318686, 0.0, -187500.02235174447, 0.0, 0.0, 0.0, -187500.02235174447, -0.226, 0.098, -0.984, 192.0, 0.0, 0.0, 0.0, 0.0, 0.0, 0.0, 0.0, 0.0, 0.0, 1.67770595089468E9, 0.0, 2023-03-01 13:25:50.894
177.0, 30269.537004177215, 12169.809600092125, 0.0, -187500.02235174447, 0.0, 0.0, 0.0, -187500.02235174447, -0.22, 0.092, -0.982, 192.0, 249.0, 32.0, 2.0, 224.0, 225.0, 80.0, 0.0, 0.0, 0.0, 1.677705950902351E9, 0.0, 2023-03-01 13:25:50.902
178.0, 30222.866561754534, 12110.53277379665, 0.0, -187500.02235174447, 0.0, 0.0, 0.0, -187500.02235174447, -0.22, 0.092, -0.982, 192.0, 0.0, 0.0, 0.0, 0.0, 0.0, 0.0, 0.0, 0.0, 0.0, 1.67770595090237E9, 0.0, 2023-03-01 13:25:50.902
179.0, 30239.138631717997, 12142.898099767935, 0.0, -187500.02235174447, 0.0, 0.0, 0.0, -187500.02235174447, -0.22, 0.092, -0.982, 192.0, 0.0, 0.0, 0.0, 0.0, 0.0, 0.0, 0.0, 0.0, 0.0, 1.677705950909059E9, 0.0, 2023-03-01 13:25:50.909
180.0, 30292.402838754995, 12209.841574411581, 0.0, -187500.02235174447, 0.0, 0.0, 0.0, -187500.02235174447, -0.22, 0.092, -0.982, 192.0, 0.0, 0.0, 0.0, 0.0, 0.0, 0.0, 0.0, 0.0, 0.0, 1.677705950917165E9, 0.0, 2023-03-01 13:25:50.917
181.0, 30278.589460681615, 12184.964082832825, 0.0, -187500.02235174447, 0.0, 0.0, 0.0, -187500.02235174447, -0.22, 0.092, -0.982, 192.0, 0.0, 0.0, 0.0, 0.0, 0.0, 0.0, 0.0, 0.0, 0.0, 1.67770595091718E9, 0.0, 2023-03-01 13:25:50.917
182.0, 30225.682881555902, 12116.97007619978, 0.0, -187500.02235174447, 0.0, 0.0, 0.0, -187500.02235174447, -0.22, 0.092, -0.982, 192.0, 0.0, 0.0, 0.0, 0.0, 0.0, 0.0, 0.0, 0.0, 0.0, 1.677705950924273E9, 0.0, 2023-03-01 13:25:50.924
183.0, 30231.159058947454, 12130.537585084152, 0.0, -187500.02235174447, 0.0, 0.0, 0.0, -187500.02235174447, -0.22, 0.092, -0.982, 192.0, 0.0, 0.0, 0.0, 0.0, 0.0, 0.0, 0.0, 0.0, 0.0, 1.677705950924285E9, 0.0, 2023-03-01 13:25:50.924
184.0, 30285.674963673948, 12197.771632405715, 0.0, -187500.02235174447, 0.0, 0.0, 0.0, -187500.02235174447, -0.22, 0.092, -0.982, 192.0, 0.0, 0.0, 0.0, 0.0, 0.0, 0.0, 0.0, 0.0, 0.0, 1.677705950931603E9, 0.0, 2023-03-01 13:25:50.931
185.0, 30286.23375728533, 12188.98739683478, 0.0, -187500.02235174447, 0.0, 0.0, 0.0, -187500.02235174447, -0.22, 0.092, -0.982, 192.0, 0.0, 0.0, 0.0, 0.0, 0.0, 0.0, 0.0, 0.0, 0.0, 1.677705950931612E9, 0.0, 2023-03-01 13:25:50.931
186.0, 30236.1882014499, 12125.173166414877, 0.0, -187500.02235174447, 0.0, 0.0, 0.0, -187500.02235174447, -0.22, 0.092, -0.982, 192.0, 0.0, 0.0, 0.0, 0.0, 0.0, 0.0, 0.0, 0.0, 0.0, 1.677705950939633E9, 0.0, 2023-03-01 13:25:50.939
187.0, 30224.475887355315, 12121.30631462411, 0.0, -187500.02235174447, 0.0, 0.0, 0.0, -187500.02235174447, -0.224, 0.078, -0.986, 192.0, 249.0, 0.0, 2.0, 112.0, 225.0, 48.0, 0.0, 0.0, 0.0, 1.677705950939651E9, 0.0, 2023-03-01 13:25:50.939
188.0, 30283.439789228418, 12198.375129506008, 0.0, -187500.02235174447, 0.0, 0.0, 0.0, -187500.02235174447, -0.224, 0.078, -0.986, 192.0, 0.0, 0.0, 0.0, 0.0, 0.0, 0.0, 0.0, 0.0, 0.0, 1.677705950947752E9, 0.0, 2023-03-01 13:25:50.947
189.0, 30309.546626752213, 12218.335237304598, 0.0, -187500.02235174447, 0.0, 0.0, 0.0, -187500.02235174447, -0.224, 0.078, -0.986, 192.0, 0.0, 0.0, 0.0, 0.0, 0.0, 0.0, 0.0, 0.0, 0.0, 1.677705950947767E9, 0.0, 2023-03-01 13:25:50.947
190.0, 30263.122053518542, 12150.162416715912, 0.0, -187500.02235174447, 0.0, 0.0, 0.0, -187500.02235174447, -0.224, 0.078, -0.986, 192.0, 0.0, 0.0, 0.0, 0.0, 0.0, 0.0, 0.0, 0.0, 0.0, 1.677705950954354E9, 0.0, 2023-03-01 13:25:50.954
191.0, 30229.37091939103, 12118.06531167809, 0.0, -187500.02235174447, 0.0, 0.0, 0.0, -187500.02235174447, -0.224, 0.078, -0.986, 192.0, 0.0, 0.0, 0.0, 0.0, 0.0, 0.0, 0.0, 0.0, 0.0, 1.677705950954368E9, 0.0, 2023-03-01 13:25:50.954
192.0, 30280.33289674913, 12189.099155557056, 0.0, -187500.02235174447, 0.0, 0.0, 0.0, -187500.02235174447, -0.224, 0.078, -0.986, 192.0, 0.0, 0.0, 0.0, 0.0, 0.0, 0.0, 0.0, 0.0, 0.0, 1.677705950962357E9, 0.0, 2023-03-01 13:25:50.962
193.0, 30308.250225573807, 12215.161289591944, 0.0, -187500.02235174447, 0.0, 0.0, 0.0, -187500.02235174447, -0.224, 0.078, -0.986, 192.0, 0.0, 0.0, 0.0, 0.0, 0.0, 0.0, 0.0, 0.0, 0.0, 1.677705950962375E9, 0.0, 2023-03-01 13:25:50.962
194.0, 30265.401931452983, 12157.471437152797, 0.0, -187500.02235174447, 0.0, 0.0, 0.0, -187500.02235174447, -0.224, 0.078, -0.986, 192.0, 0.0, 0.0, 0.0, 0.0, 0.0, 0.0, 0.0, 0.0, 0.0, 1.677705950969394E9, 0.0, 2023-03-01 13:25:50.969
195.0, 30225.437012366896, 12113.036169175646, 0.0, -187500.02235174447, 0.0, 0.0, 0.0, -187500.02235174447, -0.224, 0.078, -0.986, 192.0, 0.0, 0.0, 0.0, 0.0, 0.0, 0.0, 0.0, 0.0, 0.0, 1.677705950977429E9, 0.0, 2023-03-01 13:25:50.977
196.0, 30260.193974994898, 12163.372297688997, 0.0, -187500.02235174447, 0.0, 0.0, 0.0, -187500.02235174447, -0.224, 0.078, -0.986, 192.0, 0.0, 0.0, 0.0, 0.0, 0.0, 0.0, 0.0, 0.0, 0.0, 1.67770595097747E9, 0.0, 2023-03-01 13:25:50.977
197.0, 30302.639937715525, 12210.445071511875, 0.0, -187500.02235174447, 0.0, 0.0, 0.0, -187500.02235174447, -0.224, 0.078, -0.986, 192.0, 0.0, 0.0, 0.0, 0.0, 0.0, 0.0, 0.0, 0.0, 0.0, 1.677705950983938E9, 0.0, 2023-03-01 13:25:50.983
198.0, 30280.93639384942, 12170.658966381427, 0.0, -187500.02235174447, 0.0, 0.0, 0.0, -187500.02235174447, -0.224, 0.08600000000000001, -0.984, 192.0, 249.0, 0.0, 2.0, 176.0, 225.0, 64.0, 0.0, 0.0, 0.0, 1.677705950983955E9, 0.0, 2023-03-01 13:25:50.983
199.0, 30241.217343952343, 12120.613410545995, 0.0, -187500.02235174447, 0.0, 0.0, 0.0, -187500.02235174447, -0.224, 0.08600000000000001, -0.984, 192.0, 0.0, 0.0, 0.0, 0.0, 0.0, 0.0, 0.0, 0.0, 0.0, 1.677705950991967E9, 0.0, 2023-03-01 13:25:50.991
200.0, 30266.22894599783, 12161.830027321581, 0.0, -187500.02235174447, 0.0, 0.0, 0.0, -187500.02235174447, -0.224, 0.08600000000000001, -0.984, 192.0, 0.0, 0.0, 0.0, 0.0, 0.0, 0.0, 0.0, 0.0, 0.0, 1.677705950991984E9, 0.0, 2023-03-01 13:25:50.991
201.0, 30313.65934773199, 12220.123376861022, 0.0, -187500.02235174447, 0.0, 0.0, 0.0, -187500.02235174447, -0.224, 0.08600000000000001, -0.984, 192.0, 0.0, 0.0, 0.0, 0.0, 0.0, 0.0, 0.0, 0.0, 0.0, 1.677705951000057E9, 0.0, 2023-03-01 13:25:51.000
202.0, 30295.42032425646, 12188.272141012209, 0.0, -187500.02235174447, 0.0, 0.0, 0.0, -187500.02235174447, -0.224, 0.08600000000000001, -0.984, 192.0, 0.0, 0.0, 0.0, 0.0, 0.0, 0.0, 0.0, 0.0, 0.0, 1.677705951000073E9, 0.0, 2023-03-01 13:25:51.000
203.0, 30249.107509745063, 12130.649343806428, 0.0, -187500.02235174447, 0.0, 0.0, 0.0, -187500.02235174447, -0.224, 0.08600000000000001, -0.984, 192.0, 0.0, 0.0, 0.0, 0.0, 0.0, 0.0, 0.0, 0.0, 0.0, 1.677705951006622E9, 0.0, 2023-03-01 13:25:51.006
204.0, 30262.630315140526, 12159.46074240932, 0.0, -187500.02235174447, 0.0, 0.0, 0.0, -187500.02235174447, -0.224, 0.08600000000000001, -0.984, 192.0, 0.0, 0.0, 0.0, 0.0, 0.0, 0.0, 0.0, 0.0, 0.0, 1.677705951006635E9, 0.0, 2023-03-01 13:25:51.006
205.0, 30313.324071565163, 12222.693827473382, 0.0, -187500.02235174447, 0.0, 0.0, 0.0, -187500.02235174447, -0.224, 0.08600000000000001, -0.984, 192.0, 0.0, 0.0, 0.0, 0.0, 0.0, 0.0, 0.0, 0.0, 0.0, 1.677705951014575E9, 0.0, 2023-03-01 13:25:51.014
206.0, 30302.461123759884, 12200.185620806888, 0.0, -187500.02235174447, 0.0, 0.0, 0.0, -187500.02235174447, -0.224, 0.08600000000000001, -0.984, 192.0, 0.0, 0.0, 0.0, 0.0, 0.0, 0.0, 0.0, 0.0, 0.0, 1.677705951014584E9, 0.0, 2023-03-01 13:25:51.014
207.0, 30248.45930915586, 12132.72805604077, 0.0, -187500.02235174447, 0.0, 0.0, 0.0, -187500.02235174447, -0.224, 0.08600000000000001, -0.984, 192.0, 0.0, 0.0, 0.0, 0.0, 0.0, 0.0, 0.0, 0.0, 0.0, 1.677705951022721E9, 0.0, 2023-03-01 13:25:51.022
208.0, 30245.263009698752, 12138.919489254891, 0.0, -187500.02235174447, 0.0, 0.0, 0.0, -187500.02235174447, -0.228, 0.092, -0.98, 192.0, 248.0, 224.0, 2.0, 224.0, 225.0, 96.0, 0.0, 0.0, 0.0, 1.677705951022744E9, 0.0, 2023-03-01 13:25:51.022
209.0, 30297.767257424268, 12208.098138344067, 0.0, -187500.02235174447, 0.0, 0.0, 0.0, -187500.02235174447, -0.228, 0.092, -0.98, 192.0, 0.0, 0.0, 0.0, 0.0, 0.0, 0.0, 0.0, 0.0, 0.0, 1.677705951029585E9, 0.0, 2023-03-01 13:25:51.029
210.0, 30300.8517981591, 12204.36539702003, 0.0, -187500.02235174447, 0.0, 0.0, 0.0, -187500.02235174447, -0.228, 0.092, -0.98, 192.0, 0.0, 0.0, 0.0, 0.0, 0.0, 0.0, 0.0, 0.0, 0.0, 1.677705951036289E9, 0.0, 2023-03-01 13:25:51.036
211.0, 30249.12986148952, 12133.890346752447, 0.0, -187500.02235174447, 0.0, 0.0, 0.0, -187500.02235174447, -0.228, 0.092, -0.98, 192.0, 0.0, 0.0, 0.0, 0.0, 0.0, 0.0, 0.0, 0.0, 0.0, 1.677705951036305E9, 0.0, 2023-03-01 13:25:51.036
212.0, 30234.89180027149, 12122.535660569152, 0.0, -187500.02235174447, 0.0, 0.0, 0.0, -187500.02235174447, -0.228, 0.092, -0.98, 192.0, 0.0, 0.0, 0.0, 0.0, 0.0, 0.0, 0.0, 0.0, 0.0, 1.67770595104435E9, 0.0, 2023-03-01 13:25:51.044
213.0, 30286.9490131079, 12193.122469559012, 0.0, -187500.02235174447, 0.0, 0.0, 0.0, -187500.02235174447, -0.228, 0.092, -0.98, 192.0, 0.0, 0.0, 0.0, 0.0, 0.0, 0.0, 0.0, 0.0, 0.0, 1.677705951044363E9, 0.0, 2023-03-01 13:25:51.044
214.0, 30304.0033941273, 12210.333312789597, 0.0, -187500.02235174447, 0.0, 0.0, 0.0, -187500.02235174447, -0.228, 0.092, -0.98, 192.0, 0.0, 0.0, 0.0, 0.0, 0.0, 0.0, 0.0, 0.0, 0.0, 1.677705951052336E9, 0.0, 2023-03-01 13:25:51.052
215.0, 30263.166757007453, 12153.537530128662, 0.0, -187500.02235174447, 0.0, 0.0, 0.0, -187500.02235174447, -0.228, 0.092, -0.98, 192.0, 0.0, 0.0, 0.0, 0.0, 0.0, 0.0, 0.0, 0.0, 0.0, 1.677705951052347E9, 0.0, 2023-03-01 13:25:51.052
216.0, 30237.46225088385, 12129.040018205646, 0.0, -187500.02235174447, 0.0, 0.0, 0.0, -187500.02235174447, -0.228, 0.092, -0.98, 192.0, 0.0, 0.0, 0.0, 0.0, 0.0, 0.0, 0.0, 0.0, 0.0, 1.677705951059333E9, 0.0, 2023-03-01 13:25:51.059
217.0, 30283.059809572675, 12189.255617768244, 0.0, -187500.02235174447, 0.0, 0.0, 0.0, -187500.02235174447, -0.228, 0.092, -0.98, 192.0, 0.0, 0.0, 0.0, 0.0, 0.0, 0.0, 0.0, 0.0, 0.0, 1.677705951059342E9, 0.0, 2023-03-01 13:25:51.059
218.0, 30310.53010350825, 12216.636504725993, 0.0, -187500.02235174447, 0.0, 0.0, 0.0, -187500.02235174447, -0.23, 0.092, -0.98, 192.0, 248.0, 208.0, 2.0, 224.0, 225.0, 96.0, 0.0, 0.0, 0.0, 1.677705951066963E9, 0.0, 2023-03-01 13:25:51.066
219.0, 30269.201728010386, 12159.013707520213, 0.0, -187500.02235174447, 0.0, 0.0, 0.0, -187500.02235174447, -0.23, 0.092, -0.98, 192.0, 0.0, 0.0, 0.0, 0.0, 0.0, 0.0, 0.0, 0.0, 0.0, 1.677705951066983E9, 0.0, 2023-03-01 13:25:51.066
220.0, 30232.65662582596, 12120.546355312628, 0.0, -187500.02235174447, 0.0, 0.0, 0.0, -187500.02235174447, -0.23, 0.092, -0.98, 192.0, 0.0, 0.0, 0.0, 0.0, 0.0, 0.0, 0.0, 0.0, 0.0, 1.677705951074887E9, 0.0, 2023-03-01 13:25:51.074
221.0, 30269.157024521475, 12174.07878328309, 0.0, -187500.02235174447, 0.0, 0.0, 0.0, -187500.02235174447, -0.23, 0.092, -0.98, 192.0, 0.0, 0.0, 0.0, 0.0, 0.0, 0.0, 0.0, 0.0, 0.0, 1.677705951074904E9, 0.0, 2023-03-01 13:25:51.074
222.0, 30311.58063549765, 12220.27983907221, 0.0, -187500.02235174447, 0.0, 0.0, 0.0, -187500.02235174447, -0.23, 0.092, -0.98, 192.0, 0.0, 0.0, 0.0, 0.0, 0.0, 0.0, 0.0, 0.0, 0.0, 1.677705951082948E9, 0.0, 2023-03-01 13:25:51.082
223.0, 30284.557376451183, 12177.208027506833, 0.0, -187500.02235174447, 0.0, 0.0, 0.0, -187500.02235174447, -0.23, 0.092, -0.98, 192.0, 0.0, 0.0, 0.0, 0.0, 0.0, 0.0, 0.0, 0.0, 0.0, 1.677705951082963E9, 0.0, 2023-03-01 13:25:51.082
224.0, 30239.809184051657, 12124.368503614487, 0.0, -187500.02235174447, 0.0, 0.0, 0.0, -187500.02235174447, -0.23, 0.092, -0.98, 192.0, 0.0, 0.0, 0.0, 0.0, 0.0, 0.0, 0.0, 0.0, 0.0, 1.67770595108909E9, 0.0, 2023-03-01 13:25:51.089
225.0, 30263.859661085567, 12164.445181422852, 0.0, -187500.02235174447, 0.0, 0.0, 0.0, -187500.02235174447, -0.23, 0.092, -0.98, 192.0, 0.0, 0.0, 0.0, 0.0, 0.0, 0.0, 0.0, 0.0, 0.0, 1.677705951096525E9, 0.0, 2023-03-01 13:25:51.096
226.0, 30311.8041529422, 12222.872641429025, 0.0, -187500.02235174447, 0.0, 0.0, 0.0, -187500.02235174447, -0.23, 0.092, -0.98, 192.0, 0.0, 0.0, 0.0, 0.0, 0.0, 0.0, 0.0, 0.0, 0.0, 1.677705951096533E9, 0.0, 2023-03-01 13:25:51.096
227.0, 30287.194882296906, 12187.713347400826, 0.0, -187500.02235174447, 0.0, 0.0, 0.0, -187500.02235174447, -0.23, 0.092, -0.98, 192.0, 0.0, 0.0, 0.0, 0.0, 0.0, 0.0, 0.0, 0.0, 0.0, 1.677705951104546E9, 0.0, 2023-03-01 13:25:51.104
228.0, 30235.405890393962, 12122.736826269249, 0.0, -187500.02235174447, 0.0, 0.0, 0.0, -187500.02235174447, -0.226, 0.10200000000000001, -0.984, 192.0, 248.0, 240.0, 3.0, 48.0, 225.0, 64.0, 0.0, 0.0, 0.0, 1.677705951104565E9, 0.0, 2023-03-01 13:25:51.104
229.0, 30248.638123111505, 12144.105093968523, 0.0, -187500.02235174447, 0.0, 0.0, 0.0, -187500.02235174447, -0.226, 0.10200000000000001, -0.984, 192.0, 0.0, 0.0, 0.0, 0.0, 0.0, 0.0, 0.0, 0.0, 0.0, 1.677705951112468E9, 0.0, 2023-03-01 13:25:51.112
230.0, 30304.22691157185, 12211.964990134835, 0.0, -187500.02235174447, 0.0, 0.0, 0.0, -187500.02235174447, -0.226, 0.10200000000000001, -0.984, 192.0, 0.0, 0.0, 0.0, 0.0, 0.0, 0.0, 0.0, 0.0, 0.0, 1.677705951112485E9, 0.0, 2023-03-01 13:25:51.112
231.0, 30302.014088870776, 12200.386786506986, 0.0, -187500.02235174447, 0.0, 0.0, 0.0, -187500.02235174447, -0.226, 0.10200000000000001, -0.984, 192.0, 0.0, 0.0, 0.0, 0.0, 0.0, 0.0, 0.0, 0.0, 0.0, 1.677705951119102E9, 0.0, 2023-03-01 13:25:51.119
232.0, 30251.297980701685, 12133.398608374431, 0.0, -187500.02235174447, 0.0, 0.0, 0.0, -187500.02235174447, -0.226, 0.10200000000000001, -0.984, 192.0, 0.0, 0.0, 0.0, 0.0, 0.0, 0.0, 0.0, 0.0, 0.0, 1.677705951119117E9, 0.0, 2023-03-01 13:25:51.119
233.0, 30239.563314862648, 12132.281021151664, 0.0, -187500.02235174447, 0.0, 0.0, 0.0, -187500.02235174447, -0.226, 0.10200000000000001, -0.984, 192.0, 0.0, 0.0, 0.0, 0.0, 0.0, 0.0, 0.0, 0.0, 0.0, 1.67770595112728E9, 0.0, 2023-03-01 13:25:51.127
234.0, 30286.7478474078, 12197.682225427894, 0.0, -187500.02235174447, 0.0, 0.0, 0.0, -187500.02235174447, -0.226, 0.10200000000000001, -0.984, 192.0, 0.0, 0.0, 0.0, 0.0, 0.0, 0.0, 0.0, 0.0, 0.0, 1.677705951127292E9, 0.0, 2023-03-01 13:25:51.127
235.0, 30295.733248678836, 12198.710405672839, 0.0, -187500.02235174447, 0.0, 0.0, 0.0, -187500.02235174447, -0.226, 0.10200000000000001, -0.984, 192.0, 0.0, 0.0, 0.0, 0.0, 0.0, 0.0, 0.0, 0.0, 0.0, 1.677705951135041E9, 0.0, 2023-03-01 13:25:51.135
236.0, 30248.906344044968, 12135.074989208579, 0.0, -187500.02235174447, 0.0, 0.0, 0.0, -187500.02235174447, -0.226, 0.10200000000000001, -0.984, 192.0, 0.0, 0.0, 0.0, 0.0, 0.0, 0.0, 0.0, 0.0, 0.0, 1.677705951135053E9, 0.0, 2023-03-01 13:25:51.135
237.0, 30235.07061422713, 12126.134291426455, 0.0, -187500.02235174447, 0.0, 0.0, 0.0, -187500.02235174447, -0.226, 0.10200000000000001, -0.984, 192.0, 0.0, 0.0, 0.0, 0.0, 0.0, 0.0, 0.0, 0.0, 0.0, 1.677705951143181E9, 0.0, 2023-03-01 13:25:51.143
238.0, 30285.09381831811, 12194.910609115435, 0.0, -187500.02235174447, 0.0, 0.0, 0.0, -187500.02235174447, -0.228, 0.10400000000000001, -0.986, 192.0, 248.0, 224.0, 3.0, 64.0, 225.0, 48.0, 0.0, 0.0, 0.0, 1.677705951143194E9, 0.0, 2023-03-01 13:25:51.143
239.0, 30303.243434815817, 12211.339141290086, 0.0, -187500.02235174447, 0.0, 0.0, 0.0, -187500.02235174447, -0.228, 0.10400000000000001, -0.986, 192.0, 0.0, 0.0, 0.0, 0.0, 0.0, 0.0, 0.0, 0.0, 0.0, 1.677705951149394E9, 0.0, 2023-03-01 13:25:51.149
240.0, 30257.71293136036, 12149.69303008235, 0.0, -187500.02235174447, 0.0, 0.0, 0.0, -187500.02235174447, -0.228, 0.10400000000000001, -0.986, 192.0, 0.0, 0.0, 0.0, 0.0, 0.0, 0.0, 0.0, 0.0, 0.0, 1.677705951149414E9, 0.0, 2023-03-01 13:25:51.149
241.0, 30229.12505020202, 12118.914677967392, 0.0, -187500.02235174447, 0.0, 0.0, 0.0, -187500.02235174447, -0.228, 0.10400000000000001, -0.986, 192.0, 0.0, 0.0, 0.0, 0.0, 0.0, 0.0, 0.0, 0.0, 0.0, 1.677705951156741E9, 0.0, 2023-03-01 13:25:51.156
242.0, 30271.056922800177, 12177.252730995742, 0.0, -187500.02235174447, 0.0, 0.0, 0.0, -187500.02235174447, -0.228, 0.10400000000000001, -0.986, 192.0, 0.0, 0.0, 0.0, 0.0, 0.0, 0.0, 0.0, 0.0, 0.0, 1.677705951164794E9, 0.0, 2023-03-01 13:25:51.164
243.0, 30300.561225481182, 12208.478117999806, 0.0, -187500.02235174447, 0.0, 0.0, 0.0, -187500.02235174447, -0.228, 0.10400000000000001, -0.986, 192.0, 0.0, 0.0, 0.0, 0.0, 0.0, 0.0, 0.0, 0.0, 0.0, 1.677705951164812E9, 0.0, 2023-03-01 13:25:51.164
