%OpenBCI Raw EEG Data
%Number of channels = 8
%Sample Rate = 250 Hz
%Board = OpenBCI_GUI$BoardCytonSerial
Sample Index, EXG Channel 0, EXG Channel 1, EXG Channel 2, EXG Channel 3, EXG Channel 4, EXG Channel 5, EXG Channel 6, EXG Channel 7, Accel Channel 0, Accel Channel 1, Accel Channel 2, Other, Other, Other, Other, Other, Other, Other, Analog Channel 0, Analog Channel 1, Analog Channel 2, Timestamp, Other, Timestamp (Formatted)
132.0, 28650.75661549051, 15814.999141096967, 0.0, -187500.02235174447, 0.0, 0.0, 0.0, -187500.02235174447, 0.0, 0.0, 0.0, 192.0, 0.0, 0.0, 0.0, 0.0, 0.0, 0.0, 0.0, 0.0, 0.0, 1.677706378927961E9, 0.0, 2023-03-01 13:32:58.927
133.0, 28646.95681893311, 15804.851449114258, 0.0, -187500.02235174447, 0.0, 0.0, 0.0, -187500.02235174447, 0.0, 0.0, 0.0, 192.0, 0.0, 0.0, 0.0, 0.0, 0.0, 0.0, 0.0, 0.0, 0.0, 1.677706378927977E9, 0.0, 2023-03-01 13:32:58.927
134.0, 28628.51662975748, 15769.446285897051, 0.0, -187500.02235174447, 0.0, 0.0, 0.0, -187500.02235174447, 0.0, 0.0, 0.0, 192.0, 0.0, 0.0, 0.0, 0.0, 0.0, 0.0, 0.0, 0.0, 0.0, 1.677706378927985E9, 0.0, 2023-03-01 13:32:58.927
135.0, 28638.57491476237, 15782.097373258755, 0.0, -187500.02235174447, 0.0, 0.0, 0.0, -187500.02235174447, -0.302, 0.34, -0.886, 192.0, 246.0, 144.0, 10.0, 160.0, 228.0, 80.0, 0.0, 0.0, 0.0, 1.677706378927992E9, 0.0, 2023-03-01 13:32:58.927
136.0, 28656.322199859882, 15827.493766247484, 0.0, -187500.02235174447, 0.0, 0.0, 0.0, -187500.02235174447, -0.302, 0.34, -0.886, 192.0, 0.0, 0.0, 0.0, 0.0, 0.0, 0.0, 0.0, 0.0, 0.0, 1.677706378928E9, 0.0, 2023-03-01 13:32:58.928
137.0, 28657.082159171365, 15820.005931854956, 0.0, -187500.02235174447, 0.0, 0.0, 0.0, -187500.02235174447, -0.302, 0.34, -0.886, 192.0, 0.0, 0.0, 0.0, 0.0, 0.0, 0.0, 0.0, 0.0, 0.0, 1.677706378928008E9, 0.0, 2023-03-01 13:32:58.928
0.0, 0.0, 0.0, 0.0, 0.0, 0.0, 0.0, 0.0, 0.0, -0.296, 0.314, -0.91, 192.0, 246.0, 192.0, 9.0, 208.0, 227.0, 144.0, 0.0, 0.0, 0.0, 1.677706379005825E9, 0.0, 2023-03-01 13:32:59.005
1.0, 28450.037950281854, 16018.444719129173, 0.0, -187500.02235174447, 0.0, 0.0, 0.0, -187500.02235174447, -0.296, 0.314, -0.91, 192.0, 0.0, 0.0, 0.0, 0.0, 0.0, 0.0, 0.0, 0.0, 0.0, 1.6777063790129E9, 0.0, 2023-03-01 13:32:59.012
2.0, 28418.72315629997, 15969.069715627398, 0.0, -187500.02235174447, 0.0, 0.0, 0.0, -187500.02235174447, -0.296, 0.314, -0.91, 192.0, 0.0, 0.0, 0.0, 0.0, 0.0, 0.0, 0.0, 0.0, 0.0, 1.677706379020498E9, 0.0, 2023-03-01 13:32:59.020
3.0, 28432.178906462064, 16011.180402181197, 0.0, -187500.02235174447, 0.0, 0.0, 0.0, -187500.02235174447, -0.296, 0.314, -0.91, 192.0, 0.0, 0.0, 0.0, 0.0, 0.0, 0.0, 0.0, 0.0, 0.0, 1.677706379020516E9, 0.0, 2023-03-01 13:32:59.020
4.0, 28464.812453366812, 16065.718658652147, 0.0, -187500.02235174447, 0.0, 0.0, 0.0, -187500.02235174447, -0.296, 0.314, -0.91, 192.0, 0.0, 0.0, 0.0, 0.0, 0.0, 0.0, 0.0, 0.0, 0.0, 1.677706379028511E9, 0.0, 2023-03-01 13:32:59.028
5.0, 28441.76780483339, 16034.090940247886, 0.0, -187500.02235174447, 0.0, 0.0, 0.0, -187500.02235174447, -0.296, 0.314, -0.91, 192.0, 0.0, 0.0, 0.0, 0.0, 0.0, 0.0, 0.0, 0.0, 0.0, 1.67770637902853E9, 0.0, 2023-03-01 13:32:59.028
6.0, 28413.917531242078, 15983.35248033434, 0.0, -187500.02235174447, 0.0, 0.0, 0.0, -187500.02235174447, -0.296, 0.314, -0.91, 192.0, 0.0, 0.0, 0.0, 0.0, 0.0, 0.0, 0.0, 0.0, 0.0, 1.677706379035067E9, 0.0, 2023-03-01 13:32:59.035
7.0, 28417.24794116592, 15999.758660764535, 0.0, -187500.02235174447, 0.0, 0.0, 0.0, -187500.02235174447, -0.296, 0.314, -0.91, 192.0, 0.0, 0.0, 0.0, 0.0, 0.0, 0.0, 0.0, 0.0, 0.0, 1.677706379035081E9, 0.0, 2023-03-01 13:32:59.035
8.0, 28449.434453181562, 16054.207510257664, 0.0, -187500.02235174447, 0.0, 0.0, 0.0, -187500.02235174447, -0.28200000000000003, 0.302, -0.91, 192.0, 247.0, 48.0, 9.0, 112.0, 227.0, 144.0, 0.0, 0.0, 0.0, 1.677706379043084E9, 0.0, 2023-03-01 13:32:59.043
9.0, 28451.49081367145, 16042.495196163083, 0.0, -187500.02235174447, 0.0, 0.0, 0.0, -187500.02235174447, -0.28200000000000003, 0.302, -0.91, 192.0, 0.0, 0.0, 0.0, 0.0, 0.0, 0.0, 0.0, 0.0, 0.0, 1.677706379043099E9, 0.0, 2023-03-01 13:32:59.043
10.0, 28421.852400523712, 15993.388413594774, 0.0, -187500.02235174447, 0.0, 0.0, 0.0, -187500.02235174447, -0.28200000000000003, 0.302, -0.91, 192.0, 0.0, 0.0, 0.0, 0.0, 0.0, 0.0, 0.0, 0.0, 0.0, 1.677706379050202E9, 0.0, 2023-03-01 13:32:59.050
11.0, 28424.176981947065, 16005.145431178265, 0.0, -187500.02235174447, 0.0, 0.0, 0.0, -187500.02235174447, -0.28200000000000003, 0.302, -0.91, 192.0, 0.0, 0.0, 0.0, 0.0, 0.0, 0.0, 0.0, 0.0, 0.0, 1.677706379050258E9, 0.0, 2023-03-01 13:32:59.050
12.0, 28450.507336915416, 16055.36980096934, 0.0, -187500.02235174447, 0.0, 0.0, 0.0, -187500.02235174447, -0.28200000000000003, 0.302, -0.91, 192.0, 0.0, 0.0, 0.0, 0.0, 0.0, 0.0, 0.0, 0.0, 0.0, 1.677706379057715E9, 0.0, 2023-03-01 13:32:59.057
13.0, 28455.87175558469, 16055.101580035876, 0.0, -187500.02235174447, 0.0, 0.0, 0.0, -187500.02235174447, -0.28200000000000003, 0.302, -0.91, 192.0, 0.0, 0.0, 0.0, 0.0, 0.0, 0.0, 0.0, 0.0, 0.0, 1.677706379057739E9, 0.0, 2023-03-01 13:32:59.057
14.0, 28425.11575521419, 15996.428250840694, 0.0, -187500.02235174447, 0.0, 0.0, 0.0, -187500.02235174447, -0.28200000000000003, 0.302, -0.91, 192.0, 0.0, 0.0, 0.0, 0.0, 0.0, 0.0, 0.0, 0.0, 0.0, 1.677706379065717E9, 0.0, 2023-03-01 13:32:59.065
15.0, 28417.829086521757, 15989.007471681532, 0.0, -187500.02235174447, 0.0, 0.0, 0.0, -187500.02235174447, -0.28200000000000003, 0.302, -0.91, 192.0, 0.0, 0.0, 0.0, 0.0, 0.0, 0.0, 0.0, 0.0, 0.0, 1.677706379065737E9, 0.0, 2023-03-01 13:32:59.065
16.0, 28455.469424184495, 16055.615670158348, 0.0, -187500.02235174447, 0.0, 0.0, 0.0, -187500.02235174447, -0.28200000000000003, 0.302, -0.91, 192.0, 0.0, 0.0, 0.0, 0.0, 0.0, 0.0, 0.0, 0.0, 0.0, 1.677706379072637E9, 0.0, 2023-03-01 13:32:59.072
17.0, 28470.266279013907, 16070.390173243306, 0.0, -187500.02235174447, 0.0, 0.0, 0.0, -187500.02235174447, -0.28200000000000003, 0.302, -0.91, 192.0, 0.0, 0.0, 0.0, 0.0, 0.0, 0.0, 0.0, 0.0, 0.0, 1.677706379079868E9, 0.0, 2023-03-01 13:32:59.079
18.0, 28429.519048871884, 16015.114309205332, 0.0, -187500.02235174447, 0.0, 0.0, 0.0, -187500.02235174447, -0.28, 0.298, -0.91, 192.0, 247.0, 64.0, 9.0, 80.0, 227.0, 144.0, 0.0, 0.0, 0.0, 1.677706379079882E9, 0.0, 2023-03-01 13:32:59.079
19.0, 28407.949615472513, 15984.73828849057, 0.0, -187500.02235174447, 0.0, 0.0, 0.0, -187500.02235174447, -0.28, 0.298, -0.91, 192.0, 0.0, 0.0, 0.0, 0.0, 0.0, 0.0, 0.0, 0.0, 0.0, 1.677706379087449E9, 0.0, 2023-03-01 13:32:59.087
20.0, 28438.415043165096, 16044.104521763866, 0.0, -187500.02235174447, 0.0, 0.0, 0.0, -187500.02235174447, -0.28, 0.298, -0.91, 192.0, 0.0, 0.0, 0.0, 0.0, 0.0, 0.0, 0.0, 0.0, 0.0, 1.677706379087464E9, 0.0, 2023-03-01 13:32:59.087
21.0, 28469.05928481332, 16073.9441006117, 0.0, -187500.02235174447, 0.0, 0.0, 0.0, -187500.02235174447, -0.28, 0.298, -0.91, 192.0, 0.0, 0.0, 0.0, 0.0, 0.0, 0.0, 0.0, 0.0, 0.0, 1.677706379095421E9, 0.0, 2023-03-01 13:32:59.095
22.0, 28444.181793234566, 16019.428195885206, 0.0, -187500.02235174447, 0.0, 0.0, 0.0, -187500.02235174447, -0.28, 0.298, -0.91, 192.0, 0.0, 0.0, 0.0, 0.0, 0.0, 0.0, 0.0, 0.0, 0.0, 1.677706379095432E9, 0.0, 2023-03-01 13:32:59.095
23.0, 28411.749412029912, 15982.748983234047, 0.0, -187500.02235174447, 0.0, 0.0, 0.0, -187500.02235174447, -0.28, 0.298, -0.91, 192.0, 0.0, 0.0, 0.0, 0.0, 0.0, 0.0, 0.0, 0.0, 0.0, 1.677706379103326E9, 0.0, 2023-03-01 13:32:59.103
24.0, 28437.63273210916, 16028.212431456142, 0.0, -187500.02235174447, 0.0, 0.0, 0.0, -187500.02235174447, -0.28, 0.298, -0.91, 192.0, 0.0, 0.0, 0.0, 0.0, 0.0, 0.0, 0.0, 0.0, 0.0, 1.677706379103348E9, 0.0, 2023-03-01 13:32:59.103
25.0, 28467.137034790165, 16070.077248820931, 0.0, -187500.02235174447, 0.0, 0.0, 0.0, -187500.02235174447, -0.28, 0.298, -0.91, 192.0, 0.0, 0.0, 0.0, 0.0, 0.0, 0.0, 0.0, 0.0, 0.0, 1.677706379109989E9, 0.0, 2023-03-01 13:32:59.109
26.0, 28447.802775836324, 16035.253230959563, 0.0, -187500.02235174447, 0.0, 0.0, 0.0, -187500.02235174447, -0.28, 0.298, -0.91, 192.0, 0.0, 0.0, 0.0, 0.0, 0.0, 0.0, 0.0, 0.0, 0.0, 1.677706379110007E9, 0.0, 2023-03-01 13:32:59.110
27.0, 28423.551133102315, 15980.424401810695, 0.0, -187500.02235174447, 0.0, 0.0, 0.0, -187500.02235174447, -0.28, 0.298, -0.91, 192.0, 0.0, 0.0, 0.0, 0.0, 0.0, 0.0, 0.0, 0.0, 0.0, 1.677706379118029E9, 0.0, 2023-03-01 13:32:59.118
28.0, 28431.016615750388, 16009.83929751388, 0.0, -187500.02235174447, 0.0, 0.0, 0.0, -187500.02235174447, -0.28, 0.302, -0.912, 192.0, 247.0, 64.0, 9.0, 112.0, 227.0, 128.0, 0.0, 0.0, 0.0, 1.677706379118044E9, 0.0, 2023-03-01 13:32:59.118
29.0, 28460.118587031197, 16067.015059830555, 0.0, -187500.02235174447, 0.0, 0.0, 0.0, -187500.02235174447, -0.28, 0.302, -0.912, 192.0, 0.0, 0.0, 0.0, 0.0, 0.0, 0.0, 0.0, 0.0, 0.0, 1.677706379126027E9, 0.0, 2023-03-01 13:32:59.126
30.0, 28445.8134705798, 16045.51268166455, 0.0, -187500.02235174447, 0.0, 0.0, 0.0, -187500.02235174447, -0.28, 0.302, -0.912, 192.0, 0.0, 0.0, 0.0, 0.0, 0.0, 0.0, 0.0, 0.0, 0.0, 1.677706379126042E9, 0.0, 2023-03-01 13:32:59.126
31.0, 28416.800906276814, 15990.683852515682, 0.0, -187500.02235174447, 0.0, 0.0, 0.0, -187500.02235174447, -0.28, 0.302, -0.912, 192.0, 0.0, 0.0, 0.0, 0.0, 0.0, 0.0, 0.0, 0.0, 0.0, 1.677706379133179E9, 0.0, 2023-03-01 13:32:59.133
32.0, 28422.344138901728, 16012.230934170597, 0.0, -187500.02235174447, 0.0, 0.0, 0.0, -187500.02235174447, -0.28, 0.302, -0.912, 192.0, 0.0, 0.0, 0.0, 0.0, 0.0, 0.0, 0.0, 0.0, 0.0, 1.677706379141173E9, 0.0, 2023-03-01 13:32:59.141
33.0, 28460.833842853768, 16065.405734229773, 0.0, -187500.02235174447, 0.0, 0.0, 0.0, -187500.02235174447, -0.28, 0.302, -0.912, 192.0, 0.0, 0.0, 0.0, 0.0, 0.0, 0.0, 0.0, 0.0, 0.0, 1.677706379141194E9, 0.0, 2023-03-01 13:32:59.141
34.0, 28451.759034604915, 16055.325097480429, 0.0, -187500.02235174447, 0.0, 0.0, 0.0, -187500.02235174447, -0.28, 0.302, -0.912, 192.0, 0.0, 0.0, 0.0, 0.0, 0.0, 0.0, 0.0, 0.0, 0.0, 1.67770637914774E9, 0.0, 2023-03-01 13:32:59.147
35.0, 28428.356758160207, 15995.936512462678, 0.0, -187500.02235174447, 0.0, 0.0, 0.0, -187500.02235174447, -0.28, 0.302, -0.912, 192.0, 0.0, 0.0, 0.0, 0.0, 0.0, 0.0, 0.0, 0.0, 0.0, 1.677706379147763E9, 0.0, 2023-03-01 13:32:59.147
36.0, 28424.28874066934, 15989.476858315094, 0.0, -187500.02235174447, 0.0, 0.0, 0.0, -187500.02235174447, -0.28, 0.302, -0.912, 192.0, 0.0, 0.0, 0.0, 0.0, 0.0, 0.0, 0.0, 0.0, 0.0, 1.677706379155726E9, 0.0, 2023-03-01 13:32:59.155
37.0, 28450.417929937594, 16053.268736990542, 0.0, -187500.02235174447, 0.0, 0.0, 0.0, -187500.02235174447, -0.28, 0.302, -0.912, 192.0, 0.0, 0.0, 0.0, 0.0, 0.0, 0.0, 0.0, 0.0, 0.0, 1.677706379155742E9, 0.0, 2023-03-01 13:32:59.155
38.0, 28462.085540543267, 16058.297879492984, 0.0, -187500.02235174447, 0.0, 0.0, 0.0, -187500.02235174447, -0.28200000000000003, 0.294, -0.91, 192.0, 247.0, 48.0, 9.0, 48.0, 227.0, 144.0, 0.0, 0.0, 0.0, 1.677706379162688E9, 0.0, 2023-03-01 13:32:59.162
39.0, 28418.27612141086, 15995.69064327367, 0.0, -187500.02235174447, 0.0, 0.0, 0.0, -187500.02235174447, -0.28200000000000003, 0.294, -0.91, 192.0, 0.0, 0.0, 0.0, 0.0, 0.0, 0.0, 0.0, 0.0, 0.0, 1.677706379162701E9, 0.0, 2023-03-01 13:32:59.162
40.0, 28397.064315922777, 15977.809247709423, 0.0, -187500.02235174447, 0.0, 0.0, 0.0, -187500.02235174447, -0.28200000000000003, 0.294, -0.91, 192.0, 0.0, 0.0, 0.0, 0.0, 0.0, 0.0, 0.0, 0.0, 0.0, 1.677706379170317E9, 0.0, 2023-03-01 13:32:59.170
41.0, 28428.915551771588, 16038.360123438852, 0.0, -187500.02235174447, 0.0, 0.0, 0.0, -187500.02235174447, -0.28200000000000003, 0.294, -0.91, 192.0, 0.0, 0.0, 0.0, 0.0, 0.0, 0.0, 0.0, 0.0, 0.0, 1.677706379170332E9, 0.0, 2023-03-01 13:32:59.170
42.0, 28461.01265680941, 16074.905225623277, 0.0, -187500.02235174447, 0.0, 0.0, 0.0, -187500.02235174447, -0.28200000000000003, 0.294, -0.91, 192.0, 0.0, 0.0, 0.0, 0.0, 0.0, 0.0, 0.0, 0.0, 0.0, 1.677706379178405E9, 0.0, 2023-03-01 13:32:59.178
43.0, 28461.996133565444, 16040.46118741765, 0.0, -187500.02235174447, 0.0, 0.0, 0.0, -187500.02235174447, -0.28200000000000003, 0.294, -0.91, 192.0, 0.0, 0.0, 0.0, 0.0, 0.0, 0.0, 0.0, 0.0, 0.0, 1.677706379178416E9, 0.0, 2023-03-01 13:32:59.178
44.0, 28442.05837751131, 16001.993835210067, 0.0, -187500.02235174447, 0.0, 0.0, 0.0, -187500.02235174447, -0.28200000000000003, 0.294, -0.91, 192.0, 0.0, 0.0, 0.0, 0.0, 0.0, 0.0, 0.0, 0.0, 0.0, 1.677706379186283E9, 0.0, 2023-03-01 13:32:59.186
45.0, 28433.877639040667, 16022.803309297957, 0.0, -187500.02235174447, 0.0, 0.0, 0.0, -187500.02235174447, -0.28200000000000003, 0.294, -0.91, 192.0, 0.0, 0.0, 0.0, 0.0, 0.0, 0.0, 0.0, 0.0, 0.0, 1.677706379186306E9, 0.0, 2023-03-01 13:32:59.186
46.0, 28459.716255631003, 16057.247347503586, 0.0, -187500.02235174447, 0.0, 0.0, 0.0, -187500.02235174447, -0.28200000000000003, 0.294, -0.91, 192.0, 0.0, 0.0, 0.0, 0.0, 0.0, 0.0, 0.0, 0.0, 0.0, 1.677706379192379E9, 0.0, 2023-03-01 13:32:59.192
47.0, 28462.845499854746, 16020.970466252622, 0.0, -187500.02235174447, 0.0, 0.0, 0.0, -187500.02235174447, -0.28200000000000003, 0.294, -0.91, 192.0, 0.0, 0.0, 0.0, 0.0, 0.0, 0.0, 0.0, 0.0, 0.0, 1.67770637919997E9, 0.0, 2023-03-01 13:32:59.199
48.0, 28427.641502337636, 15977.809247709423, 0.0, -187500.02235174447, 0.0, 0.0, 0.0, -187500.02235174447, -0.278, 0.29, -0.912, 192.0, 247.0, 80.0, 9.0, 16.0, 227.0, 128.0, 0.0, 0.0, 0.0, 1.677706379199985E9, 0.0, 2023-03-01 13:32:59.199
49.0, 28442.885392056156, 16018.914105762733, 0.0, -187500.02235174447, 0.0, 0.0, 0.0, -187500.02235174447, -0.278, 0.29, -0.912, 192.0, 0.0, 0.0, 0.0, 0.0, 0.0, 0.0, 0.0, 0.0, 0.0, 1.677706379208017E9, 0.0, 2023-03-01 13:32:59.208
50.0, 28470.243927269454, 16055.168635269241, 0.0, -187500.02235174447, 0.0, 0.0, 0.0, -187500.02235174447, -0.278, 0.29, -0.912, 192.0, 0.0, 0.0, 0.0, 0.0, 0.0, 0.0, 0.0, 0.0, 0.0, 1.677706379208031E9, 0.0, 2023-03-01 13:32:59.208
51.0, 28461.951430076533, 16027.854803544857, 0.0, -187500.02235174447, 0.0, 0.0, 0.0, -187500.02235174447, -0.278, 0.29, -0.912, 192.0, 0.0, 0.0, 0.0, 0.0, 0.0, 0.0, 0.0, 0.0, 0.0, 1.677706379214921E9, 0.0, 2023-03-01 13:32:59.214
52.0, 28443.690054856546, 15981.96667217811, 0.0, -187500.02235174447, 0.0, 0.0, 0.0, -187500.02235174447, -0.278, 0.29, -0.912, 192.0, 0.0, 0.0, 0.0, 0.0, 0.0, 0.0, 0.0, 0.0, 0.0, 1.677706379214929E9, 0.0, 2023-03-01 13:32:59.214
53.0, 28455.73764511796, 16003.603160810848, 0.0, -187500.02235174447, 0.0, 0.0, 0.0, -187500.02235174447, -0.278, 0.29, -0.912, 192.0, 0.0, 0.0, 0.0, 0.0, 0.0, 0.0, 0.0, 0.0, 0.0, 1.677706379222539E9, 0.0, 2023-03-01 13:32:59.222
54.0, 28482.470331486504, 16056.442684703194, 0.0, -187500.02235174447, 0.0, 0.0, 0.0, -187500.02235174447, -0.278, 0.29, -0.912, 192.0, 0.0, 0.0, 0.0, 0.0, 0.0, 0.0, 0.0, 0.0, 0.0, 1.677706379222554E9, 0.0, 2023-03-01 13:32:59.222
55.0, 28464.946563833546, 16042.763417096547, 0.0, -187500.02235174447, 0.0, 0.0, 0.0, -187500.02235174447, -0.278, 0.29, -0.912, 192.0, 0.0, 0.0, 0.0, 0.0, 0.0, 0.0, 0.0, 0.0, 0.0, 1.677706379230646E9, 0.0, 2023-03-01 13:32:59.230
56.0, 28435.509316385906, 15996.472954329605, 0.0, -187500.02235174447, 0.0, 0.0, 0.0, -187500.02235174447, -0.278, 0.29, -0.912, 192.0, 0.0, 0.0, 0.0, 0.0, 0.0, 0.0, 0.0, 0.0, 0.0, 1.677706379230667E9, 0.0, 2023-03-01 13:32:59.230
57.0, 28444.897049057134, 16007.715881790626, 0.0, -187500.02235174447, 0.0, 0.0, 0.0, -187500.02235174447, -0.278, 0.29, -0.912, 192.0, 0.0, 0.0, 0.0, 0.0, 0.0, 0.0, 0.0, 0.0, 0.0, 1.6777063792386E9, 0.0, 2023-03-01 13:32:59.238
58.0, 28480.279860529885, 16061.337716738906, 0.0, -187500.02235174447, 0.0, 0.0, 0.0, -187500.02235174447, -0.278, 0.292, -0.91, 192.0, 247.0, 80.0, 9.0, 32.0, 227.0, 144.0, 0.0, 0.0, 0.0, 1.677706379238617E9, 0.0, 2023-03-01 13:32:59.238
59.0, 28473.59668893775, 16050.541824166994, 0.0, -187500.02235174447, 0.0, 0.0, 0.0, -187500.02235174447, -0.278, 0.292, -0.91, 192.0, 0.0, 0.0, 0.0, 0.0, 0.0, 0.0, 0.0, 0.0, 0.0, 1.677706379245203E9, 0.0, 2023-03-01 13:32:59.245
60.0, 28438.929133287565, 15982.793686722958, 0.0, -187500.02235174447, 0.0, 0.0, 0.0, -187500.02235174447, -0.278, 0.292, -0.91, 192.0, 0.0, 0.0, 0.0, 0.0, 0.0, 0.0, 0.0, 0.0, 0.0, 1.67770637924524E9, 0.0, 2023-03-01 13:32:59.245
61.0, 28441.454880411016, 15978.233930854076, 0.0, -187500.02235174447, 0.0, 0.0, 0.0, -187500.02235174447, -0.278, 0.292, -0.91, 192.0, 0.0, 0.0, 0.0, 0.0, 0.0, 0.0, 0.0, 0.0, 0.0, 1.677706379252327E9, 0.0, 2023-03-01 13:32:59.252
62.0, 28474.848386627244, 16040.818815328934, 0.0, -187500.02235174447, 0.0, 0.0, 0.0, -187500.02235174447, -0.278, 0.292, -0.91, 192.0, 0.0, 0.0, 0.0, 0.0, 0.0, 0.0, 0.0, 0.0, 0.0, 1.677706379252339E9, 0.0, 2023-03-01 13:32:59.252
63.0, 28479.050514584844, 16046.74202760959, 0.0, -187500.02235174447, 0.0, 0.0, 0.0, -187500.02235174447, -0.278, 0.292, -0.91, 192.0, 0.0, 0.0, 0.0, 0.0, 0.0, 0.0, 0.0, 0.0, 0.0, 1.677706379260328E9, 0.0, 2023-03-01 13:32:59.260
64.0, 28447.981589791965, 15991.332053104885, 0.0, -187500.02235174447, 0.0, 0.0, 0.0, -187500.02235174447, -0.278, 0.292, -0.91, 192.0, 0.0, 0.0, 0.0, 0.0, 0.0, 0.0, 0.0, 0.0, 0.0, 1.67770637926819E9, 0.0, 2023-03-01 13:32:59.268
65.0, 28425.786307547845, 15967.59450049335, 0.0, -187500.02235174447, 0.0, 0.0, 0.0, -187500.02235174447, -0.278, 0.292, -0.91, 192.0, 0.0, 0.0, 0.0, 0.0, 0.0, 0.0, 0.0, 0.0, 0.0, 1.677706379268215E9, 0.0, 2023-03-01 13:32:59.268
66.0, 28455.827052095778, 16025.798443054968, 0.0, -187500.02235174447, 0.0, 0.0, 0.0, -187500.02235174447, -0.278, 0.292, -0.91, 192.0, 0.0, 0.0, 0.0, 0.0, 0.0, 0.0, 0.0, 0.0, 0.0, 1.677706379274997E9, 0.0, 2023-03-01 13:32:59.274
67.0, 28474.40135173814, 16053.335792223907, 0.0, -187500.02235174447, 0.0, 0.0, 0.0, -187500.02235174447, -0.278, 0.292, -0.91, 192.0, 0.0, 0.0, 0.0, 0.0, 0.0, 0.0, 0.0, 0.0, 0.0, 1.677706379275011E9, 0.0, 2023-03-01 13:32:59.275
68.0, 28448.316865958797, 16007.112384690332, 0.0, -187500.02235174447, 0.0, 0.0, 0.0, -187500.02235174447, -0.278, 0.292, -0.91, 192.0, 0.0, 0.0, 0.0, 0.0, 0.0, 0.0, 0.0, 0.0, 0.0, 1.677706379282957E9, 0.0, 2023-03-01 13:32:59.282
69.0, 28424.176981947065, 15980.44675355515, 0.0, -187500.02235174447, 0.0, 0.0, 0.0, -187500.02235174447, -0.272, 0.29, -0.916, 192.0, 247.0, 128.0, 9.0, 16.0, 227.0, 96.0, 0.0, 0.0, 0.0, 1.677706379282972E9, 0.0, 2023-03-01 13:32:59.282
70.0, 28446.774595591378, 16025.21729769913, 0.0, -187500.02235174447, 0.0, 0.0, 0.0, -187500.02235174447, -0.272, 0.29, -0.916, 192.0, 0.0, 0.0, 0.0, 0.0, 0.0, 0.0, 0.0, 0.0, 0.0, 1.677706379290864E9, 0.0, 2023-03-01 13:32:59.290
71.0, 28486.8736251442, 16051.927632323222, 0.0, -187500.02235174447, 0.0, 0.0, 0.0, -187500.02235174447, -0.272, 0.29, -0.916, 192.0, 0.0, 0.0, 0.0, 0.0, 0.0, 0.0, 0.0, 0.0, 0.0, 1.677706379290878E9, 0.0, 2023-03-01 13:32:59.290
72.0, 28458.241040496952, 16007.134736434788, 0.0, -187500.02235174447, 0.0, 0.0, 0.0, -187500.02235174447, -0.272, 0.29, -0.916, 192.0, 0.0, 0.0, 0.0, 0.0, 0.0, 0.0, 0.0, 0.0, 0.0, 1.67770637929784E9, 0.0, 2023-03-01 13:32:59.297
73.0, 28427.82031629328, 15966.320451059397, 0.0, -187500.02235174447, 0.0, 0.0, 0.0, -187500.02235174447, -0.272, 0.29, -0.916, 192.0, 0.0, 0.0, 0.0, 0.0, 0.0, 0.0, 0.0, 0.0, 0.0, 1.677706379297852E9, 0.0, 2023-03-01 13:32:59.297
74.0, 28450.172060748588, 16019.852879029857, 0.0, -187500.02235174447, 0.0, 0.0, 0.0, -187500.02235174447, -0.272, 0.29, -0.916, 192.0, 0.0, 0.0, 0.0, 0.0, 0.0, 0.0, 0.0, 0.0, 0.0, 1.677706379305485E9, 0.0, 2023-03-01 13:32:59.305
75.0, 28480.570433207802, 16076.156923312776, 0.0, -187500.02235174447, 0.0, 0.0, 0.0, -187500.02235174447, -0.272, 0.29, -0.916, 192.0, 0.0, 0.0, 0.0, 0.0, 0.0, 0.0, 0.0, 0.0, 0.0, 1.677706379305511E9, 0.0, 2023-03-01 13:32:59.305
76.0, 28463.806624866324, 16041.846995573878, 0.0, -187500.02235174447, 0.0, 0.0, 0.0, -187500.02235174447, -0.272, 0.29, -0.916, 192.0, 0.0, 0.0, 0.0, 0.0, 0.0, 0.0, 0.0, 0.0, 0.0, 1.677706379313439E9, 0.0, 2023-03-01 13:32:59.313
77.0, 28436.649255353124, 15985.453544313139, 0.0, -187500.02235174447, 0.0, 0.0, 0.0, -187500.02235174447, -0.272, 0.29, -0.916, 192.0, 0.0, 0.0, 0.0, 0.0, 0.0, 0.0, 0.0, 0.0, 0.0, 1.677706379313462E9, 0.0, 2023-03-01 13:32:59.313
78.0, 28449.09917701473, 16011.850954514857, 0.0, -187500.02235174447, 0.0, 0.0, 0.0, -187500.02235174447, -0.272, 0.29, -0.916, 192.0, 0.0, 0.0, 0.0, 0.0, 0.0, 0.0, 0.0, 0.0, 0.0, 1.67770637932066E9, 0.0, 2023-03-01 13:32:59.320
79.0, 28489.377020523196, 16079.263815792063, 0.0, -187500.02235174447, 0.0, 0.0, 0.0, -187500.02235174447, -0.272, 0.296, -0.918, 192.0, 247.0, 128.0, 9.0, 64.0, 227.0, 80.0, 0.0, 0.0, 0.0, 1.677706379327556E9, 0.0, 2023-03-01 13:32:59.327
80.0, 28487.253604799942, 16071.775981399534, 0.0, -187500.02235174447, 0.0, 0.0, 0.0, -187500.02235174447, -0.272, 0.296, -0.918, 192.0, 0.0, 0.0, 0.0, 0.0, 0.0, 0.0, 0.0, 0.0, 0.0, 1.67770637932757E9, 0.0, 2023-03-01 13:32:59.327
81.0, 28459.671552142092, 16004.608989311337, 0.0, -187500.02235174447, 0.0, 0.0, 0.0, -187500.02235174447, -0.272, 0.296, -0.918, 192.0, 0.0, 0.0, 0.0, 0.0, 0.0, 0.0, 0.0, 0.0, 0.0, 1.677706379335168E9, 0.0, 2023-03-01 13:32:59.335
82.0, 28453.68128462807, 15997.50113457455, 0.0, -187500.02235174447, 0.0, 0.0, 0.0, -187500.02235174447, -0.272, 0.296, -0.918, 192.0, 0.0, 0.0, 0.0, 0.0, 0.0, 0.0, 0.0, 0.0, 0.0, 1.67770637933518E9, 0.0, 2023-03-01 13:32:59.335
83.0, 28484.43728499857, 16055.950946325178, 0.0, -187500.02235174447, 0.0, 0.0, 0.0, -187500.02235174447, -0.272, 0.296, -0.918, 192.0, 0.0, 0.0, 0.0, 0.0, 0.0, 0.0, 0.0, 0.0, 0.0, 1.677706379343094E9, 0.0, 2023-03-01 13:32:59.343
84.0, 28488.058267600332, 16054.498082935583, 0.0, -187500.02235174447, 0.0, 0.0, 0.0, -187500.02235174447, -0.272, 0.296, -0.918, 192.0, 0.0, 0.0, 0.0, 0.0, 0.0, 0.0, 0.0, 0.0, 0.0, 1.677706379343102E9, 0.0, 2023-03-01 13:32:59.343
85.0, 28455.201203251032, 16005.793631767468, 0.0, -187500.02235174447, 0.0, 0.0, 0.0, -187500.02235174447, -0.272, 0.296, -0.918, 192.0, 0.0, 0.0, 0.0, 0.0, 0.0, 0.0, 0.0, 0.0, 0.0, 1.677706379351154E9, 0.0, 2023-03-01 13:32:59.351
86.0, 28442.170136233588, 16003.133774177288, 0.0, -187500.02235174447, 0.0, 0.0, 0.0, -187500.02235174447, -0.272, 0.296, -0.918, 192.0, 0.0, 0.0, 0.0, 0.0, 0.0, 0.0, 0.0, 0.0, 0.0, 1.677706379351178E9, 0.0, 2023-03-01 13:32:59.351
87.0, 28475.518938960904, 16064.221091773641, 0.0, -187500.02235174447, 0.0, 0.0, 0.0, -187500.02235174447, -0.272, 0.296, -0.918, 192.0, 0.0, 0.0, 0.0, 0.0, 0.0, 0.0, 0.0, 0.0, 0.0, 1.677706379357749E9, 0.0, 2023-03-01 13:32:59.357
88.0, 28485.711334432526, 16075.620481445847, 0.0, -187500.02235174447, 0.0, 0.0, 0.0, -187500.02235174447, -0.272, 0.296, -0.918, 192.0, 0.0, 0.0, 0.0, 0.0, 0.0, 0.0, 0.0, 0.0, 0.0, 1.677706379357764E9, 0.0, 2023-03-01 13:32:59.357
89.0, 28456.09527302924, 16021.12692846381, 0.0, -187500.02235174447, 0.0, 0.0, 0.0, -187500.02235174447, -0.278, 0.296, -0.92, 192.0, 247.0, 80.0, 9.0, 64.0, 227.0, 64.0, 0.0, 0.0, 0.0, 1.677706379365693E9, 0.0, 2023-03-01 13:32:59.365
90.0, 28443.24301996744, 16002.753794521546, 0.0, -187500.02235174447, 0.0, 0.0, 0.0, -187500.02235174447, -0.278, 0.296, -0.92, 192.0, 0.0, 0.0, 0.0, 0.0, 0.0, 0.0, 0.0, 0.0, 0.0, 1.67770637936571E9, 0.0, 2023-03-01 13:32:59.365
91.0, 28473.39552323765, 16061.538882439005, 0.0, -187500.02235174447, 0.0, 0.0, 0.0, -187500.02235174447, -0.278, 0.296, -0.92, 192.0, 0.0, 0.0, 0.0, 0.0, 0.0, 0.0, 0.0, 0.0, 0.0, 1.677706379373774E9, 0.0, 2023-03-01 13:32:59.373
92.0, 28488.974689123, 16078.146228569298, 0.0, -187500.02235174447, 0.0, 0.0, 0.0, -187500.02235174447, -0.278, 0.296, -0.92, 192.0, 0.0, 0.0, 0.0, 0.0, 0.0, 0.0, 0.0, 0.0, 0.0, 1.677706379373788E9, 0.0, 2023-03-01 13:32:59.373
93.0, 28463.314886488308, 16028.167727967231, 0.0, -187500.02235174447, 0.0, 0.0, 0.0, -187500.02235174447, -0.278, 0.296, -0.92, 192.0, 0.0, 0.0, 0.0, 0.0, 0.0, 0.0, 0.0, 0.0, 0.0, 1.677706379380748E9, 0.0, 2023-03-01 13:32:59.380
94.0, 28439.085595498753, 15992.851971727845, 0.0, -187500.02235174447, 0.0, 0.0, 0.0, -187500.02235174447, -0.278, 0.296, -0.92, 192.0, 0.0, 0.0, 0.0, 0.0, 0.0, 0.0, 0.0, 0.0, 0.0, 1.67770637938739E9, 0.0, 2023-03-01 13:32:59.387
95.0, 28464.097197544244, 16035.454396659661, 0.0, -187500.02235174447, 0.0, 0.0, 0.0, -187500.02235174447, -0.278, 0.296, -0.92, 192.0, 0.0, 0.0, 0.0, 0.0, 0.0, 0.0, 0.0, 0.0, 0.0, 1.677706379387405E9, 0.0, 2023-03-01 13:32:59.387
96.0, 28485.666630943615, 16074.793466901001, 0.0, -187500.02235174447, 0.0, 0.0, 0.0, -187500.02235174447, -0.278, 0.296, -0.92, 192.0, 0.0, 0.0, 0.0, 0.0, 0.0, 0.0, 0.0, 0.0, 0.0, 1.677706379395531E9, 0.0, 2023-03-01 13:32:59.395
97.0, 28466.82411036779, 16035.052065259466, 0.0, -187500.02235174447, 0.0, 0.0, 0.0, -187500.02235174447, -0.278, 0.296, -0.92, 192.0, 0.0, 0.0, 0.0, 0.0, 0.0, 0.0, 0.0, 0.0, 0.0, 1.677706379395556E9, 0.0, 2023-03-01 13:32:59.395
98.0, 28434.90581928561, 15990.9744251936, 0.0, -187500.02235174447, 0.0, 0.0, 0.0, -187500.02235174447, -0.278, 0.296, -0.92, 192.0, 0.0, 0.0, 0.0, 0.0, 0.0, 0.0, 0.0, 0.0, 0.0, 1.677706379403328E9, 0.0, 2023-03-01 13:32:59.403
99.0, 28446.595781635737, 16027.988914011588, 0.0, -187500.02235174447, 0.0, 0.0, 0.0, -187500.02235174447, -0.28, 0.292, -0.92, 192.0, 247.0, 64.0, 9.0, 32.0, 227.0, 64.0, 0.0, 0.0, 0.0, 1.677706379403345E9, 0.0, 2023-03-01 13:32:59.403
100.0, 28478.82699714029, 16081.051955348488, 0.0, -187500.02235174447, 0.0, 0.0, 0.0, -187500.02235174447, -0.28, 0.292, -0.92, 192.0, 0.0, 0.0, 0.0, 0.0, 0.0, 0.0, 0.0, 0.0, 0.0, 1.677706379410039E9, 0.0, 2023-03-01 13:32:59.410
101.0, 28462.711389388012, 16055.012173058054, 0.0, -187500.02235174447, 0.0, 0.0, 0.0, -187500.02235174447, -0.28, 0.292, -0.92, 192.0, 0.0, 0.0, 0.0, 0.0, 0.0, 0.0, 0.0, 0.0, 0.0, 1.67770637941005E9, 0.0, 2023-03-01 13:32:59.410
102.0, 28438.43739490955, 16000.093936931366, 0.0, -187500.02235174447, 0.0, 0.0, 0.0, -187500.02235174447, -0.28, 0.292, -0.92, 192.0, 0.0, 0.0, 0.0, 0.0, 0.0, 0.0, 0.0, 0.0, 0.0, 1.677706379418043E9, 0.0, 2023-03-01 13:32:59.418
103.0, 28446.126395002175, 16010.420442869718, 0.0, -187500.02235174447, 0.0, 0.0, 0.0, -187500.02235174447, -0.28, 0.292, -0.92, 192.0, 0.0, 0.0, 0.0, 0.0, 0.0, 0.0, 0.0, 0.0, 0.0, 1.677706379418057E9, 0.0, 2023-03-01 13:32:59.418
104.0, 28487.41006701113, 16067.015059830555, 0.0, -187500.02235174447, 0.0, 0.0, 0.0, -187500.02235174447, -0.28, 0.292, -0.92, 192.0, 0.0, 0.0, 0.0, 0.0, 0.0, 0.0, 0.0, 0.0, 0.0, 1.677706379426075E9, 0.0, 2023-03-01 13:32:59.426
105.0, 28484.772561165402, 16052.776998612524, 0.0, -187500.02235174447, 0.0, 0.0, 0.0, -187500.02235174447, -0.28, 0.292, -0.92, 192.0, 0.0, 0.0, 0.0, 0.0, 0.0, 0.0, 0.0, 0.0, 0.0, 1.677706379426086E9, 0.0, 2023-03-01 13:32:59.426
106.0, 28450.172060748588, 16001.300931131951, 0.0, -187500.02235174447, 0.0, 0.0, 0.0, -187500.02235174447, -0.28, 0.292, -0.92, 192.0, 0.0, 0.0, 0.0, 0.0, 0.0, 0.0, 0.0, 0.0, 0.0, 1.677706379433024E9, 0.0, 2023-03-01 13:32:59.433
107.0, 28447.467499669496, 16017.46124237314, 0.0, -187500.02235174447, 0.0, 0.0, 0.0, -187500.02235174447, -0.28, 0.292, -0.92, 192.0, 0.0, 0.0, 0.0, 0.0, 0.0, 0.0, 0.0, 0.0, 0.0, 1.677706379433045E9, 0.0, 2023-03-01 13:32:59.433
108.0, 28475.67540117209, 16080.202589059185, 0.0, -187500.02235174447, 0.0, 0.0, 0.0, -187500.02235174447, -0.28, 0.292, -0.92, 192.0, 0.0, 0.0, 0.0, 0.0, 0.0, 0.0, 0.0, 0.0, 0.0, 1.677706379441139E9, 0.0, 2023-03-01 13:32:59.441
109.0, 28484.593747209758, 16081.588397215415, 0.0, -187500.02235174447, 0.0, 0.0, 0.0, -187500.02235174447, -0.278, 0.292, -0.918, 192.0, 247.0, 80.0, 9.0, 32.0, 227.0, 80.0, 0.0, 0.0, 0.0, 1.677706379447686E9, 0.0, 2023-03-01 13:32:59.447
110.0, 28459.20216550853, 16026.17842271071, 0.0, -187500.02235174447, 0.0, 0.0, 0.0, -187500.02235174447, -0.278, 0.292, -0.918, 192.0, 0.0, 0.0, 0.0, 0.0, 0.0, 0.0, 0.0, 0.0, 0.0, 1.677706379447703E9, 0.0, 2023-03-01 13:32:59.447
111.0, 28440.314941443798, 16014.108480704843, 0.0, -187500.02235174447, 0.0, 0.0, 0.0, -187500.02235174447, -0.278, 0.292, -0.918, 192.0, 0.0, 0.0, 0.0, 0.0, 0.0, 0.0, 0.0, 0.0, 0.0, 1.677706379455742E9, 0.0, 2023-03-01 13:32:59.455
112.0, 28468.992229579955, 16071.999498844089, 0.0, -187500.02235174447, 0.0, 0.0, 0.0, -187500.02235174447, -0.278, 0.292, -0.918, 192.0, 0.0, 0.0, 0.0, 0.0, 0.0, 0.0, 0.0, 0.0, 0.0, 1.677706379455761E9, 0.0, 2023-03-01 13:32:59.455
113.0, 28497.20013108255, 16077.855655891379, 0.0, -187500.02235174447, 0.0, 0.0, 0.0, -187500.02235174447, -0.278, 0.292, -0.918, 192.0, 0.0, 0.0, 0.0, 0.0, 0.0, 0.0, 0.0, 0.0, 0.0, 1.677706379462715E9, 0.0, 2023-03-01 13:32:59.462
114.0, 28475.63069768318, 16027.005437255555, 0.0, -187500.02235174447, 0.0, 0.0, 0.0, -187500.02235174447, -0.278, 0.292, -0.918, 192.0, 0.0, 0.0, 0.0, 0.0, 0.0, 0.0, 0.0, 0.0, 0.0, 1.677706379462724E9, 0.0, 2023-03-01 13:32:59.462
115.0, 28454.77652010638, 16004.273713144508, 0.0, -187500.02235174447, 0.0, 0.0, 0.0, -187500.02235174447, -0.278, 0.292, -0.918, 192.0, 0.0, 0.0, 0.0, 0.0, 0.0, 0.0, 0.0, 0.0, 0.0, 1.677706379470277E9, 0.0, 2023-03-01 13:32:59.470
116.0, 28472.54615694835, 16051.36883871184, 0.0, -187500.02235174447, 0.0, 0.0, 0.0, -187500.02235174447, -0.278, 0.292, -0.918, 192.0, 0.0, 0.0, 0.0, 0.0, 0.0, 0.0, 0.0, 0.0, 0.0, 1.677706379470292E9, 0.0, 2023-03-01 13:32:59.470
117.0, 28482.135055319675, 16076.42514424624, 0.0, -187500.02235174447, 0.0, 0.0, 0.0, -187500.02235174447, -0.278, 0.292, -0.918, 192.0, 0.0, 0.0, 0.0, 0.0, 0.0, 0.0, 0.0, 0.0, 0.0, 1.677706379478238E9, 0.0, 2023-03-01 13:32:59.478
118.0, 28462.24200275445, 16039.701228106169, 0.0, -187500.02235174447, 0.0, 0.0, 0.0, -187500.02235174447, -0.278, 0.292, -0.918, 192.0, 0.0, 0.0, 0.0, 0.0, 0.0, 0.0, 0.0, 0.0, 0.0, 1.677706379478262E9, 0.0, 2023-03-01 13:32:59.478
119.0, 28443.891220556645, 16001.010358454032, 0.0, -187500.02235174447, 0.0, 0.0, 0.0, -187500.02235174447, -0.278, 0.296, -0.92, 192.0, 247.0, 80.0, 9.0, 64.0, 227.0, 64.0, 0.0, 0.0, 0.0, 1.677706379486342E9, 0.0, 2023-03-01 13:32:59.486
120.0, 28460.163290520108, 16039.567117639437, 0.0, -187500.02235174447, 0.0, 0.0, 0.0, -187500.02235174447, -0.278, 0.296, -0.92, 192.0, 0.0, 0.0, 0.0, 0.0, 0.0, 0.0, 0.0, 0.0, 0.0, 1.677706379486359E9, 0.0, 2023-03-01 13:32:59.486
121.0, 28488.192378067062, 16085.27643505054, 0.0, -187500.02235174447, 0.0, 0.0, 0.0, -187500.02235174447, -0.278, 0.296, -0.92, 192.0, 0.0, 0.0, 0.0, 0.0, 0.0, 0.0, 0.0, 0.0, 0.0, 1.677706379492986E9, 0.0, 2023-03-01 13:32:59.492
122.0, 28474.982497093977, 16046.518510165039, 0.0, -187500.02235174447, 0.0, 0.0, 0.0, -187500.02235174447, -0.278, 0.296, -0.92, 192.0, 0.0, 0.0, 0.0, 0.0, 0.0, 0.0, 0.0, 0.0, 0.0, 1.677706379492999E9, 0.0, 2023-03-01 13:32:59.492
123.0, 28449.322694459286, 16005.056024200443, 0.0, -187500.02235174447, 0.0, 0.0, 0.0, -187500.02235174447, -0.278, 0.296, -0.92, 192.0, 0.0, 0.0, 0.0, 0.0, 0.0, 0.0, 0.0, 0.0, 0.0, 1.677706379500028E9, 0.0, 2023-03-01 13:32:59.500
124.0, 28463.29253474385, 16036.661390860249, 0.0, -187500.02235174447, 0.0, 0.0, 0.0, -187500.02235174447, -0.278, 0.296, -0.92, 192.0, 0.0, 0.0, 0.0, 0.0, 0.0, 0.0, 0.0, 0.0, 0.0, 1.677706379500042E9, 0.0, 2023-03-01 13:32:59.500
125.0, 28496.529578748894, 16084.0470891055, 0.0, -187500.02235174447, 0.0, 0.0, 0.0, -187500.02235174447, -0.278, 0.296, -0.92, 192.0, 0.0, 0.0, 0.0, 0.0, 0.0, 0.0, 0.0, 0.0, 0.0, 1.677706379507882E9, 0.0, 2023-03-01 13:32:59.507
126.0, 28478.514072717917, 16052.776998612524, 0.0, -187500.02235174447, 0.0, 0.0, 0.0, -187500.02235174447, -0.278, 0.296, -0.92, 192.0, 0.0, 0.0, 0.0, 0.0, 0.0, 0.0, 0.0, 0.0, 0.0, 1.677706379515924E9, 0.0, 2023-03-01 13:32:59.515
127.0, 28448.562735147803, 15997.679948530193, 0.0, -187500.02235174447, 0.0, 0.0, 0.0, -187500.02235174447, -0.278, 0.296, -0.92, 192.0, 0.0, 0.0, 0.0, 0.0, 0.0, 0.0, 0.0, 0.0, 0.0, 1.677706379515945E9, 0.0, 2023-03-01 13:32:59.515
128.0, 28454.038912539356, 16023.227992442608, 0.0, -187500.02235174447, 0.0, 0.0, 0.0, -187500.02235174447, -0.278, 0.296, -0.92, 192.0, 0.0, 0.0, 0.0, 0.0, 0.0, 0.0, 0.0, 0.0, 0.0, 1.677706379522667E9, 0.0, 2023-03-01 13:32:59.522
129.0, 28484.526691976393, 16085.499952495094, 0.0, -187500.02235174447, 0.0, 0.0, 0.0, -187500.02235174447, -0.28200000000000003, 0.29, -0.918, 192.0, 247.0, 48.0, 9.0, 16.0, 227.0, 80.0, 0.0, 0.0, 0.0, 1.677706379522681E9, 0.0, 2023-03-01 13:32:59.522
130.0, 28483.520863475904, 16075.441667490206, 0.0, -187500.02235174447, 0.0, 0.0, 0.0, -187500.02235174447, -0.28200000000000003, 0.29, -0.918, 192.0, 0.0, 0.0, 0.0, 0.0, 0.0, 0.0, 0.0, 0.0, 0.0, 1.677706379530558E9, 0.0, 2023-03-01 13:32:59.530
131.0, 28455.268258484397, 16010.129870191799, 0.0, -187500.02235174447, 0.0, 0.0, 0.0, -187500.02235174447, -0.28200000000000003, 0.29, -0.918, 192.0, 0.0, 0.0, 0.0, 0.0, 0.0, 0.0, 0.0, 0.0, 0.0, 1.677706379530578E9, 0.0, 2023-03-01 13:32:59.530
132.0, 28447.892182814147, 16005.614817811826, 0.0, -187500.02235174447, 0.0, 0.0, 0.0, -187500.02235174447, -0.28200000000000003, 0.29, -0.918, 192.0, 0.0, 0.0, 0.0, 0.0, 0.0, 0.0, 0.0, 0.0, 0.0, 1.677706379538592E9, 0.0, 2023-03-01 13:32:59.538
133.0, 28480.54808146335, 16068.333812753417, 0.0, -187500.02235174447, 0.0, 0.0, 0.0, -187500.02235174447, -0.28200000000000003, 0.29, -0.918, 192.0, 0.0, 0.0, 0.0, 0.0, 0.0, 0.0, 0.0, 0.0, 0.0, 1.677706379538604E9, 0.0, 2023-03-01 13:32:59.538
134.0, 28489.377020523196, 16070.9936703436, 0.0, -187500.02235174447, 0.0, 0.0, 0.0, -187500.02235174447, -0.28200000000000003, 0.29, -0.918, 192.0, 0.0, 0.0, 0.0, 0.0, 0.0, 0.0, 0.0, 0.0, 0.0, 1.677706379545669E9, 0.0, 2023-03-01 13:32:59.545
135.0, 28453.86009858371, 16019.674065074214, 0.0, -187500.02235174447, 0.0, 0.0, 0.0, -187500.02235174447, -0.28200000000000003, 0.29, -0.918, 192.0, 0.0, 0.0, 0.0, 0.0, 0.0, 0.0, 0.0, 0.0, 0.0, 1.677706379545678E9, 0.0, 2023-03-01 13:32:59.545
136.0, 28443.10890950071, 16013.035596970987, 0.0, -187500.02235174447, 0.0, 0.0, 0.0, -187500.02235174447, -0.28200000000000003, 0.29, -0.918, 192.0, 0.0, 0.0, 0.0, 0.0, 0.0, 0.0, 0.0, 0.0, 0.0, 1.677706379553149E9, 0.0, 2023-03-01 13:32:59.553
137.0, 28476.05538082783, 16061.583585927916, 0.0, -187500.02235174447, 0.0, 0.0, 0.0, -187500.02235174447, -0.28200000000000003, 0.29, -0.918, 192.0, 0.0, 0.0, 0.0, 0.0, 0.0, 0.0, 0.0, 0.0, 0.0, 1.677706379553163E9, 0.0, 2023-03-01 13:32:59.553
138.0, 28486.046610599355, 16077.810952402468, 0.0, -187500.02235174447, 0.0, 0.0, 0.0, -187500.02235174447, -0.28200000000000003, 0.29, -0.918, 192.0, 0.0, 0.0, 0.0, 0.0, 0.0, 0.0, 0.0, 0.0, 0.0, 1.677706379561244E9, 0.0, 2023-03-01 13:32:59.561
139.0, 28466.712351645514, 16028.190079711687, 0.0, -187500.02235174447, 0.0, 0.0, 0.0, -187500.02235174447, -0.28200000000000003, 0.292, -0.916, 192.0, 247.0, 48.0, 9.0, 32.0, 227.0, 96.0, 0.0, 0.0, 0.0, 1.677706379561264E9, 0.0, 2023-03-01 13:32:59.561
140.0, 28441.991322277943, 15987.688718758669, 0.0, -187500.02235174447, 0.0, 0.0, 0.0, -187500.02235174447, -0.28200000000000003, 0.292, -0.916, 192.0, 0.0, 0.0, 0.0, 0.0, 0.0, 0.0, 0.0, 0.0, 0.0, 1.677706379568293E9, 0.0, 2023-03-01 13:32:59.568
141.0, 28464.879508600177, 16044.931536308712, 0.0, -187500.02235174447, 0.0, 0.0, 0.0, -187500.02235174447, -0.28200000000000003, 0.292, -0.916, 192.0, 0.0, 0.0, 0.0, 0.0, 0.0, 0.0, 0.0, 0.0, 0.0, 1.677706379575439E9, 0.0, 2023-03-01 13:32:59.575
142.0, 28486.091314088266, 16084.56117922797, 0.0, -187500.02235174447, 0.0, 0.0, 0.0, -187500.02235174447, -0.28200000000000003, 0.292, -0.916, 192.0, 0.0, 0.0, 0.0, 0.0, 0.0, 0.0, 0.0, 0.0, 0.0, 1.67770637957545E9, 0.0, 2023-03-01 13:32:59.575
143.0, 28459.20216550853, 16032.325152435918, 0.0, -187500.02235174447, 0.0, 0.0, 0.0, -187500.02235174447, -0.28200000000000003, 0.292, -0.916, 192.0, 0.0, 0.0, 0.0, 0.0, 0.0, 0.0, 0.0, 0.0, 0.0, 1.677706379582834E9, 0.0, 2023-03-01 13:32:59.582
144.0, 28435.308150685807, 15986.079393157888, 0.0, -187500.02235174447, 0.0, 0.0, 0.0, -187500.02235174447, -0.28200000000000003, 0.292, -0.916, 192.0, 0.0, 0.0, 0.0, 0.0, 0.0, 0.0, 0.0, 0.0, 0.0, 1.677706379582846E9, 0.0, 2023-03-01 13:32:59.582
145.0, 28456.497604429438, 16027.966562267133, 0.0, -187500.02235174447, 0.0, 0.0, 0.0, -187500.02235174447, -0.28200000000000003, 0.292, -0.916, 192.0, 0.0, 0.0, 0.0, 0.0, 0.0, 0.0, 0.0, 0.0, 0.0, 1.677706379590889E9, 0.0, 2023-03-01 13:32:59.590
146.0, 28484.102008831742, 16079.42027800325, 0.0, -187500.02235174447, 0.0, 0.0, 0.0, -187500.02235174447, -0.28200000000000003, 0.292, -0.916, 192.0, 0.0, 0.0, 0.0, 0.0, 0.0, 0.0, 0.0, 0.0, 0.0, 1.6777063795909E9, 0.0, 2023-03-01 13:32:59.590
147.0, 28462.510223687917, 16053.089923034899, 0.0, -187500.02235174447, 0.0, 0.0, 0.0, -187500.02235174447, -0.28200000000000003, 0.292, -0.916, 192.0, 0.0, 0.0, 0.0, 0.0, 0.0, 0.0, 0.0, 0.0, 0.0, 1.677706379598024E9, 0.0, 2023-03-01 13:32:59.598
148.0, 28435.643426852635, 15995.489477573572, 0.0, -187500.02235174447, 0.0, 0.0, 0.0, -187500.02235174447, -0.28200000000000003, 0.292, -0.916, 192.0, 0.0, 0.0, 0.0, 0.0, 0.0, 0.0, 0.0, 0.0, 0.0, 1.677706379598043E9, 0.0, 2023-03-01 13:32:59.598
149.0, 28453.658932883613, 16018.69058831818, 0.0, -187500.02235174447, 0.0, 0.0, 0.0, -187500.02235174447, -0.28200000000000003, 0.292, -0.916, 192.0, 0.0, 0.0, 0.0, 0.0, 0.0, 0.0, 0.0, 0.0, 0.0, 1.677706379605476E9, 0.0, 2023-03-01 13:32:59.605
150.0, 28487.275956544396, 16070.636042432314, 0.0, -187500.02235174447, 0.0, 0.0, 0.0, -187500.02235174447, -0.278, 0.292, -0.918, 192.0, 247.0, 80.0, 9.0, 32.0, 227.0, 80.0, 0.0, 0.0, 0.0, 1.677706379605491E9, 0.0, 2023-03-01 13:32:59.605
151.0, 28470.8697761142, 16047.099655520877, 0.0, -187500.02235174447, 0.0, 0.0, 0.0, -187500.02235174447, -0.278, 0.292, -0.918, 192.0, 0.0, 0.0, 0.0, 0.0, 0.0, 0.0, 0.0, 0.0, 0.0, 1.67770637961356E9, 0.0, 2023-03-01 13:32:59.613
152.0, 28450.932020060067, 15995.534181062483, 0.0, -187500.02235174447, 0.0, 0.0, 0.0, -187500.02235174447, -0.278, 0.292, -0.918, 192.0, 0.0, 0.0, 0.0, 0.0, 0.0, 0.0, 0.0, 0.0, 0.0, 1.677706379613575E9, 0.0, 2023-03-01 13:32:59.613
153.0, 28450.261467726406, 16016.634227828292, 0.0, -187500.02235174447, 0.0, 0.0, 0.0, -187500.02235174447, -0.278, 0.292, -0.918, 192.0, 0.0, 0.0, 0.0, 0.0, 0.0, 0.0, 0.0, 0.0, 0.0, 1.677706379621543E9, 0.0, 2023-03-01 13:32:59.621
154.0, 28471.83090112578, 16077.743897169103, 0.0, -187500.02235174447, 0.0, 0.0, 0.0, -187500.02235174447, -0.278, 0.292, -0.918, 192.0, 0.0, 0.0, 0.0, 0.0, 0.0, 0.0, 0.0, 0.0, 0.0, 1.677706379621557E9, 0.0, 2023-03-01 13:32:59.621
155.0, 28470.221575524996, 16070.524283710038, 0.0, -187500.02235174447, 0.0, 0.0, 0.0, -187500.02235174447, -0.278, 0.292, -0.918, 192.0, 0.0, 0.0, 0.0, 0.0, 0.0, 0.0, 0.0, 0.0, 0.0, 1.677706379627796E9, 0.0, 2023-03-01 13:32:59.627
156.0, 28439.30911294331, 16009.325207391406, 0.0, -187500.02235174447, 0.0, 0.0, 0.0, -187500.02235174447, -0.278, 0.292, -0.918, 192.0, 0.0, 0.0, 0.0, 0.0, 0.0, 0.0, 0.0, 0.0, 0.0, 1.677706379635089E9, 0.0, 2023-03-01 13:32:59.635
157.0, 28445.075863012775, 16005.59246606737, 0.0, -187500.02235174447, 0.0, 0.0, 0.0, -187500.02235174447, -0.278, 0.292, -0.918, 192.0, 0.0, 0.0, 0.0, 0.0, 0.0, 0.0, 0.0, 0.0, 0.0, 1.677706379635098E9, 0.0, 2023-03-01 13:32:59.635
158.0, 28490.002869367945, 16070.077248820931, 0.0, -187500.02235174447, 0.0, 0.0, 0.0, -187500.02235174447, -0.278, 0.292, -0.918, 192.0, 0.0, 0.0, 0.0, 0.0, 0.0, 0.0, 0.0, 0.0, 0.0, 1.677706379643246E9, 0.0, 2023-03-01 13:32:59.643
159.0, 28480.503377974437, 16072.647699433292, 0.0, -187500.02235174447, 0.0, 0.0, 0.0, -187500.02235174447, -0.278, 0.292, -0.918, 192.0, 0.0, 0.0, 0.0, 0.0, 0.0, 0.0, 0.0, 0.0, 0.0, 1.677706379643263E9, 0.0, 2023-03-01 13:32:59.643
160.0, 28448.048645025334, 16015.516640605527, 0.0, -187500.02235174447, 0.0, 0.0, 0.0, -187500.02235174447, -0.278, 0.28800000000000003, -0.918, 192.0, 247.0, 80.0, 9.0, 0.0, 227.0, 80.0, 0.0, 0.0, 0.0, 1.677706379651184E9, 0.0, 2023-03-01 13:32:59.651
161.0, 28442.706578100515, 15998.797535752958, 0.0, -187500.02235174447, 0.0, 0.0, 0.0, -187500.02235174447, -0.278, 0.28800000000000003, -0.918, 192.0, 0.0, 0.0, 0.0, 0.0, 0.0, 0.0, 0.0, 0.0, 0.0, 1.677706379651203E9, 0.0, 2023-03-01 13:32:59.651
162.0, 28473.283764515374, 16049.915975322245, 0.0, -187500.02235174447, 0.0, 0.0, 0.0, -187500.02235174447, -0.278, 0.28800000000000003, -0.918, 192.0, 0.0, 0.0, 0.0, 0.0, 0.0, 0.0, 0.0, 0.0, 0.0, 1.677706379657773E9, 0.0, 2023-03-01 13:32:59.657
163.0, 28492.014526368923, 16072.088905821909, 0.0, -187500.02235174447, 0.0, 0.0, 0.0, -187500.02235174447, -0.278, 0.28800000000000003, -0.918, 192.0, 0.0, 0.0, 0.0, 0.0, 0.0, 0.0, 0.0, 0.0, 0.0, 1.677706379657783E9, 0.0, 2023-03-01 13:32:59.657
164.0, 28460.87854634268, 16024.613800598838, 0.0, -187500.02235174447, 0.0, 0.0, 0.0, -187500.02235174447, -0.278, 0.28800000000000003, -0.918, 192.0, 0.0, 0.0, 0.0, 0.0, 0.0, 0.0, 0.0, 0.0, 0.0, 1.677706379665901E9, 0.0, 2023-03-01 13:32:59.665
165.0, 28435.933999530556, 15996.472954329605, 0.0, -187500.02235174447, 0.0, 0.0, 0.0, -187500.02235174447, -0.278, 0.28800000000000003, -0.918, 192.0, 0.0, 0.0, 0.0, 0.0, 0.0, 0.0, 0.0, 0.0, 0.0, 1.677706379665916E9, 0.0, 2023-03-01 13:32:59.665
166.0, 28462.577278921282, 16042.875175818823, 0.0, -187500.02235174447, 0.0, 0.0, 0.0, -187500.02235174447, -0.278, 0.28800000000000003, -0.918, 192.0, 0.0, 0.0, 0.0, 0.0, 0.0, 0.0, 0.0, 0.0, 0.0, 1.677706379673883E9, 0.0, 2023-03-01 13:32:59.673
167.0, 28497.557758993837, 16079.152057069787, 0.0, -187500.02235174447, 0.0, 0.0, 0.0, -187500.02235174447, -0.278, 0.28800000000000003, -0.918, 192.0, 0.0, 0.0, 0.0, 0.0, 0.0, 0.0, 0.0, 0.0, 0.0, 1.677706379673892E9, 0.0, 2023-03-01 13:32:59.673
168.0, 28468.746360390945, 16041.9364025517, 0.0, -187500.02235174447, 0.0, 0.0, 0.0, -187500.02235174447, -0.278, 0.28800000000000003, -0.918, 192.0, 0.0, 0.0, 0.0, 0.0, 0.0, 0.0, 0.0, 0.0, 0.0, 1.677706379680879E9, 0.0, 2023-03-01 13:32:59.680
169.0, 28445.85817406871, 15995.73534676258, 0.0, -187500.02235174447, 0.0, 0.0, 0.0, -187500.02235174447, -0.278, 0.28800000000000003, -0.918, 192.0, 0.0, 0.0, 0.0, 0.0, 0.0, 0.0, 0.0, 0.0, 0.0, 1.677706379680896E9, 0.0, 2023-03-01 13:32:59.680
170.0, 28454.8659270842, 16034.426216414717, 0.0, -187500.02235174447, 0.0, 0.0, 0.0, -187500.02235174447, -0.276, 0.294, -0.912, 192.0, 247.0, 96.0, 9.0, 48.0, 227.0, 128.0, 0.0, 0.0, 0.0, 1.677706379687328E9, 0.0, 2023-03-01 13:32:59.687
171.0, 28477.44118898406, 16079.666147192258, 0.0, -187500.02235174447, 0.0, 0.0, 0.0, -187500.02235174447, -0.276, 0.294, -0.912, 192.0, 0.0, 0.0, 0.0, 0.0, 0.0, 0.0, 0.0, 0.0, 0.0, 1.677706379695469E9, 0.0, 2023-03-01 13:32:59.695
172.0, 28470.95918309202, 16054.431027702216, 0.0, -187500.02235174447, 0.0, 0.0, 0.0, -187500.02235174447, -0.276, 0.294, -0.912, 192.0, 0.0, 0.0, 0.0, 0.0, 0.0, 0.0, 0.0, 0.0, 0.0, 1.677706379695486E9, 0.0, 2023-03-01 13:32:59.695
173.0, 28444.82999382377, 15996.897637474256, 0.0, -187500.02235174447, 0.0, 0.0, 0.0, -187500.02235174447, -0.276, 0.294, -0.912, 192.0, 0.0, 0.0, 0.0, 0.0, 0.0, 0.0, 0.0, 0.0, 0.0, 1.677706379703474E9, 0.0, 2023-03-01 13:32:59.703
174.0, 28463.650162655136, 16025.105538976853, 0.0, -187500.02235174447, 0.0, 0.0, 0.0, -187500.02235174447, -0.276, 0.294, -0.912, 192.0, 0.0, 0.0, 0.0, 0.0, 0.0, 0.0, 0.0, 0.0, 0.0, 1.677706379703521E9, 0.0, 2023-03-01 13:32:59.703
175.0, 28509.247721343963, 16093.099545609897, 0.0, -187500.02235174447, 0.0, 0.0, 0.0, -187500.02235174447, -0.276, 0.294, -0.912, 192.0, 0.0, 0.0, 0.0, 0.0, 0.0, 0.0, 0.0, 0.0, 0.0, 1.677706379710487E9, 0.0, 2023-03-01 13:32:59.710
176.0, 28487.365363522218, 16060.980088827622, 0.0, -187500.02235174447, 0.0, 0.0, 0.0, -187500.02235174447, -0.276, 0.294, -0.912, 192.0, 0.0, 0.0, 0.0, 0.0, 0.0, 0.0, 0.0, 0.0, 0.0, 1.6777063797105E9, 0.0, 2023-03-01 13:32:59.710
177.0, 28436.7610140754, 15983.844218712356, 0.0, -187500.02235174447, 0.0, 0.0, 0.0, -187500.02235174447, -0.276, 0.294, -0.912, 192.0, 0.0, 0.0, 0.0, 0.0, 0.0, 0.0, 0.0, 0.0, 0.0, 1.677706379717944E9, 0.0, 2023-03-01 13:32:59.717
178.0, 28444.9641042905, 16003.916085233222, 0.0, -187500.02235174447, 0.0, 0.0, 0.0, -187500.02235174447, -0.276, 0.294, -0.912, 192.0, 0.0, 0.0, 0.0, 0.0, 0.0, 0.0, 0.0, 0.0, 0.0, 1.677706379717956E9, 0.0, 2023-03-01 13:32:59.717
179.0, 28489.757000178935, 16077.743897169103, 0.0, -187500.02235174447, 0.0, 0.0, 0.0, -187500.02235174447, -0.276, 0.294, -0.912, 192.0, 0.0, 0.0, 0.0, 0.0, 0.0, 0.0, 0.0, 0.0, 0.0, 1.677706379726017E9, 0.0, 2023-03-01 13:32:59.726
180.0, 28489.287613545373, 16064.265795262552, 0.0, -187500.02235174447, 0.0, 0.0, 0.0, -187500.02235174447, -0.278, 0.296, -0.914, 192.0, 247.0, 80.0, 9.0, 64.0, 227.0, 112.0, 0.0, 0.0, 0.0, 1.677706379726034E9, 0.0, 2023-03-01 13:32:59.726
181.0, 28460.565621920305, 16010.845126014368, 0.0, -187500.02235174447, 0.0, 0.0, 0.0, -187500.02235174447, -0.278, 0.296, -0.914, 192.0, 0.0, 0.0, 0.0, 0.0, 0.0, 0.0, 0.0, 0.0, 0.0, 1.677706379734083E9, 0.0, 2023-03-01 13:32:59.734
182.0, 28449.54621190384, 16007.492364346072, 0.0, -187500.02235174447, 0.0, 0.0, 0.0, -187500.02235174447, -0.278, 0.296, -0.914, 192.0, 0.0, 0.0, 0.0, 0.0, 0.0, 0.0, 0.0, 0.0, 0.0, 1.677706379734101E9, 0.0, 2023-03-01 13:32:59.734
183.0, 28480.41397099662, 16064.154036540276, 0.0, -187500.02235174447, 0.0, 0.0, 0.0, -187500.02235174447, -0.278, 0.296, -0.914, 192.0, 0.0, 0.0, 0.0, 0.0, 0.0, 0.0, 0.0, 0.0, 0.0, 1.6777063797407E9, 0.0, 2023-03-01 13:32:59.740
184.0, 28492.618023469215, 16075.598129701393, 0.0, -187500.02235174447, 0.0, 0.0, 0.0, -187500.02235174447, -0.278, 0.296, -0.914, 192.0, 0.0, 0.0, 0.0, 0.0, 0.0, 0.0, 0.0, 0.0, 0.0, 1.677706379740714E9, 0.0, 2023-03-01 13:32:59.740
185.0, 28468.92517434659, 16022.490384875582, 0.0, -187500.02235174447, 0.0, 0.0, 0.0, -187500.02235174447, -0.278, 0.296, -0.914, 192.0, 0.0, 0.0, 0.0, 0.0, 0.0, 0.0, 0.0, 0.0, 0.0, 1.677706379747687E9, 0.0, 2023-03-01 13:32:59.747
186.0, 28456.58701140726, 16006.441832356673, 0.0, -187500.02235174447, 0.0, 0.0, 0.0, -187500.02235174447, -0.278, 0.296, -0.914, 192.0, 0.0, 0.0, 0.0, 0.0, 0.0, 0.0, 0.0, 0.0, 0.0, 1.677706379747701E9, 0.0, 2023-03-01 13:32:59.747
187.0, 28483.87849138719, 16061.717696394648, 0.0, -187500.02235174447, 0.0, 0.0, 0.0, -187500.02235174447, -0.278, 0.296, -0.914, 192.0, 0.0, 0.0, 0.0, 0.0, 0.0, 0.0, 0.0, 0.0, 0.0, 1.677706379755717E9, 0.0, 2023-03-01 13:32:59.755
188.0, 28505.425573042106, 16085.18702807272, 0.0, -187500.02235174447, 0.0, 0.0, 0.0, -187500.02235174447, -0.278, 0.296, -0.914, 192.0, 0.0, 0.0, 0.0, 0.0, 0.0, 0.0, 0.0, 0.0, 0.0, 1.677706379763814E9, 0.0, 2023-03-01 13:32:59.763
189.0, 28487.231253055485, 16035.521451893026, 0.0, -187500.02235174447, 0.0, 0.0, 0.0, -187500.02235174447, -0.278, 0.296, -0.914, 192.0, 0.0, 0.0, 0.0, 0.0, 0.0, 0.0, 0.0, 0.0, 0.0, 1.677706379763837E9, 0.0, 2023-03-01 13:32:59.763
190.0, 28461.549098676336, 15994.416593839718, 0.0, -187500.02235174447, 0.0, 0.0, 0.0, -187500.02235174447, -0.28, 0.296, -0.914, 192.0, 247.0, 64.0, 9.0, 64.0, 227.0, 112.0, 0.0, 0.0, 0.0, 1.677706379770243E9, 0.0, 2023-03-01 13:32:59.770
191.0, 28483.431456498085, 16046.786731098502, 0.0, -187500.02235174447, 0.0, 0.0, 0.0, -187500.02235174447, -0.28, 0.296, -0.914, 192.0, 0.0, 0.0, 0.0, 0.0, 0.0, 0.0, 0.0, 0.0, 0.0, 1.677706379770259E9, 0.0, 2023-03-01 13:32:59.770
192.0, 28500.664651473126, 16090.819667675456, 0.0, -187500.02235174447, 0.0, 0.0, 0.0, -187500.02235174447, -0.28, 0.296, -0.914, 192.0, 0.0, 0.0, 0.0, 0.0, 0.0, 0.0, 0.0, 0.0, 0.0, 1.677706379778358E9, 0.0, 2023-03-01 13:32:59.778
193.0, 28480.458674485526, 16051.547652667483, 0.0, -187500.02235174447, 0.0, 0.0, 0.0, -187500.02235174447, -0.28, 0.296, -0.914, 192.0, 0.0, 0.0, 0.0, 0.0, 0.0, 0.0, 0.0, 0.0, 0.0, 1.677706379778376E9, 0.0, 2023-03-01 13:32:59.778
194.0, 28455.849403840235, 16004.050195699954, 0.0, -187500.02235174447, 0.0, 0.0, 0.0, -187500.02235174447, -0.28, 0.296, -0.914, 192.0, 0.0, 0.0, 0.0, 0.0, 0.0, 0.0, 0.0, 0.0, 0.0, 1.677706379786288E9, 0.0, 2023-03-01 13:32:59.786
195.0, 28473.082598815276, 16038.248364716574, 0.0, -187500.02235174447, 0.0, 0.0, 0.0, -187500.02235174447, -0.28, 0.296, -0.914, 192.0, 0.0, 0.0, 0.0, 0.0, 0.0, 0.0, 0.0, 0.0, 0.0, 1.677706379786298E9, 0.0, 2023-03-01 13:32:59.786
196.0, 28503.79389569687, 16087.958644385177, 0.0, -187500.02235174447, 0.0, 0.0, 0.0, -187500.02235174447, -0.28, 0.296, -0.914, 192.0, 0.0, 0.0, 0.0, 0.0, 0.0, 0.0, 0.0, 0.0, 0.0, 1.677706379793303E9, 0.0, 2023-03-01 13:32:59.793
197.0, 28490.516959490415, 16060.041315560498, 0.0, -187500.02235174447, 0.0, 0.0, 0.0, -187500.02235174447, -0.28, 0.296, -0.914, 192.0, 0.0, 0.0, 0.0, 0.0, 0.0, 0.0, 0.0, 0.0, 0.0, 1.677706379793312E9, 0.0, 2023-03-01 13:32:59.793
198.0, 28454.575354406283, 16009.168745180219, 0.0, -187500.02235174447, 0.0, 0.0, 0.0, -187500.02235174447, -0.28, 0.296, -0.914, 192.0, 0.0, 0.0, 0.0, 0.0, 0.0, 0.0, 0.0, 0.0, 0.0, 1.677706379800946E9, 0.0, 2023-03-01 13:32:59.800
199.0, 28457.995171307943, 16029.106501234353, 0.0, -187500.02235174447, 0.0, 0.0, 0.0, -187500.02235174447, -0.28, 0.296, -0.914, 192.0, 0.0, 0.0, 0.0, 0.0, 0.0, 0.0, 0.0, 0.0, 0.0, 1.677706379800957E9, 0.0, 2023-03-01 13:32:59.800
200.0, 28493.579148480792, 16083.734164683125, 0.0, -187500.02235174447, 0.0, 0.0, 0.0, -187500.02235174447, -0.28400000000000003, 0.28600000000000003, -0.914, 192.0, 247.0, 32.0, 8.0, 240.0, 227.0, 112.0, 0.0, 0.0, 0.0, 1.677706379808864E9, 0.0, 2023-03-01 13:32:59.808
201.0, 28496.44017177107, 16071.105429065876, 0.0, -187500.02235174447, 0.0, 0.0, 0.0, -187500.02235174447, -0.28400000000000003, 0.28600000000000003, -0.914, 192.0, 0.0, 0.0, 0.0, 0.0, 0.0, 0.0, 0.0, 0.0, 0.0, 1.677706379808883E9, 0.0, 2023-03-01 13:32:59.808
202.0, 28470.132168547174, 16018.467070873628, 0.0, -187500.02235174447, 0.0, 0.0, 0.0, -187500.02235174447, -0.28400000000000003, 0.28600000000000003, -0.914, 192.0, 0.0, 0.0, 0.0, 0.0, 0.0, 0.0, 0.0, 0.0, 0.0, 1.677706379817402E9, 0.0, 2023-03-01 13:32:59.817
203.0, 28471.070941814298, 16026.290181432985, 0.0, -187500.02235174447, 0.0, 0.0, 0.0, -187500.02235174447, -0.28400000000000003, 0.28600000000000003, -0.914, 192.0, 0.0, 0.0, 0.0, 0.0, 0.0, 0.0, 0.0, 0.0, 0.0, 1.677706379823513E9, 0.0, 2023-03-01 13:32:59.823
204.0, 28501.55872125134, 16083.108315838375, 0.0, -187500.02235174447, 0.0, 0.0, 0.0, -187500.02235174447, -0.28400000000000003, 0.28600000000000003, -0.914, 192.0, 0.0, 0.0, 0.0, 0.0, 0.0, 0.0, 0.0, 0.0, 0.0, 1.677706379823523E9, 0.0, 2023-03-01 13:32:59.823
205.0, 28498.0271456274, 16079.04029834751, 0.0, -187500.02235174447, 0.0, 0.0, 0.0, -187500.02235174447, -0.28400000000000003, 0.28600000000000003, -0.914, 192.0, 0.0, 0.0, 0.0, 0.0, 0.0, 0.0, 0.0, 0.0, 0.0, 1.677706379830578E9, 0.0, 2023-03-01 13:32:59.830
206.0, 28471.49562495895, 16022.26686743103, 0.0, -187500.02235174447, 0.0, 0.0, 0.0, -187500.02235174447, -0.28400000000000003, 0.28600000000000003, -0.914, 192.0, 0.0, 0.0, 0.0, 0.0, 0.0, 0.0, 0.0, 0.0, 0.0, 1.677706379830625E9, 0.0, 2023-03-01 13:32:59.830
207.0, 28464.477177199984, 16012.588562081883, 0.0, -187500.02235174447, 0.0, 0.0, 0.0, -187500.02235174447, -0.28400000000000003, 0.28600000000000003, -0.914, 192.0, 0.0, 0.0, 0.0, 0.0, 0.0, 0.0, 0.0, 0.0, 0.0, 1.677706379838664E9, 0.0, 2023-03-01 13:32:59.838
208.0, 28486.180721066085, 16074.949929112188, 0.0, -187500.02235174447, 0.0, 0.0, 0.0, -187500.02235174447, -0.28400000000000003, 0.28600000000000003, -0.914, 192.0, 0.0, 0.0, 0.0, 0.0, 0.0, 0.0, 0.0, 0.0, 0.0, 1.677706379838673E9, 0.0, 2023-03-01 13:32:59.838
209.0, 28499.614119483726, 16092.876028165345, 0.0, -187500.02235174447, 0.0, 0.0, 0.0, -187500.02235174447, -0.28400000000000003, 0.28600000000000003, -0.914, 192.0, 0.0, 0.0, 0.0, 0.0, 0.0, 0.0, 0.0, 0.0, 0.0, 1.677706379846687E9, 0.0, 2023-03-01 13:32:59.846
210.0, 28482.559738464326, 16047.345524709885, 0.0, -187500.02235174447, 0.0, 0.0, 0.0, -187500.02235174447, -0.274, 0.28400000000000003, -0.922, 192.0, 247.0, 112.0, 8.0, 224.0, 227.0, 48.0, 0.0, 0.0, 0.0, 1.677706379846704E9, 0.0, 2023-03-01 13:32:59.846
211.0, 28466.801758623336, 16017.88592551779, 0.0, -187500.02235174447, 0.0, 0.0, 0.0, -187500.02235174447, -0.274, 0.28400000000000003, -0.922, 192.0, 0.0, 0.0, 0.0, 0.0, 0.0, 0.0, 0.0, 0.0, 0.0, 1.677706379853171E9, 0.0, 2023-03-01 13:32:59.853
212.0, 28491.12045659071, 16066.65743191927, 0.0, -187500.02235174447, 0.0, 0.0, 0.0, -187500.02235174447, -0.274, 0.28400000000000003, -0.922, 192.0, 0.0, 0.0, 0.0, 0.0, 0.0, 0.0, 0.0, 0.0, 0.0, 1.677706379853186E9, 0.0, 2023-03-01 13:32:59.853
213.0, 28507.727802721, 16092.451345020694, 0.0, -187500.02235174447, 0.0, 0.0, 0.0, -187500.02235174447, -0.274, 0.28400000000000003, -0.922, 192.0, 0.0, 0.0, 0.0, 0.0, 0.0, 0.0, 0.0, 0.0, 0.0, 1.677706379861762E9, 0.0, 2023-03-01 13:32:59.861
214.0, 28479.16227330712, 16035.007361770555, 0.0, -187500.02235174447, 0.0, 0.0, 0.0, -187500.02235174447, -0.274, 0.28400000000000003, -0.922, 192.0, 0.0, 0.0, 0.0, 0.0, 0.0, 0.0, 0.0, 0.0, 0.0, 1.677706379861781E9, 0.0, 2023-03-01 13:32:59.861
215.0, 28447.28868571385, 15991.421460082705, 0.0, -187500.02235174447, 0.0, 0.0, 0.0, -187500.02235174447, -0.274, 0.28400000000000003, -0.922, 192.0, 0.0, 0.0, 0.0, 0.0, 0.0, 0.0, 0.0, 0.0, 0.0, 1.677706379869227E9, 0.0, 2023-03-01 13:32:59.869
216.0, 28471.7191424035, 16050.452417189172, 0.0, -187500.02235174447, 0.0, 0.0, 0.0, -187500.02235174447, -0.274, 0.28400000000000003, -0.922, 192.0, 0.0, 0.0, 0.0, 0.0, 0.0, 0.0, 0.0, 0.0, 0.0, 1.677706379869237E9, 0.0, 2023-03-01 13:32:59.869
217.0, 28500.195264839564, 16089.18799033022, 0.0, -187500.02235174447, 0.0, 0.0, 0.0, -187500.02235174447, -0.274, 0.28400000000000003, -0.922, 192.0, 0.0, 0.0, 0.0, 0.0, 0.0, 0.0, 0.0, 0.0, 0.0, 1.677706379875284E9, 0.0, 2023-03-01 13:32:59.875
218.0, 28478.06703782881, 16048.284297977007, 0.0, -187500.02235174447, 0.0, 0.0, 0.0, -187500.02235174447, -0.274, 0.28400000000000003, -0.922, 192.0, 0.0, 0.0, 0.0, 0.0, 0.0, 0.0, 0.0, 0.0, 0.0, 1.677706379882889E9, 0.0, 2023-03-01 13:32:59.882
219.0, 28450.417929937594, 15999.512791575527, 0.0, -187500.02235174447, 0.0, 0.0, 0.0, -187500.02235174447, -0.274, 0.28400000000000003, -0.922, 192.0, 0.0, 0.0, 0.0, 0.0, 0.0, 0.0, 0.0, 0.0, 0.0, 1.677706379882902E9, 0.0, 2023-03-01 13:32:59.882
220.0, 28474.736627904967, 16033.353332680863, 0.0, -187500.02235174447, 0.0, 0.0, 0.0, -187500.02235174447, -0.272, 0.28800000000000003, -0.928, 192.0, 247.0, 128.0, 9.0, 0.0, 227.0, 0.0, 0.0, 0.0, 0.0, 1.677706379890922E9, 0.0, 2023-03-01 13:32:59.890
221.0, 28506.006718397944, 16087.869237407356, 0.0, -187500.02235174447, 0.0, 0.0, 0.0, -187500.02235174447, -0.272, 0.28800000000000003, -0.928, 192.0, 0.0, 0.0, 0.0, 0.0, 0.0, 0.0, 0.0, 0.0, 0.0, 1.67770637989094E9, 0.0, 2023-03-01 13:32:59.890
222.0, 28483.69967743155, 16060.13072253832, 0.0, -187500.02235174447, 0.0, 0.0, 0.0, -187500.02235174447, -0.272, 0.28800000000000003, -0.928, 192.0, 0.0, 0.0, 0.0, 0.0, 0.0, 0.0, 0.0, 0.0, 0.0, 1.677706379898901E9, 0.0, 2023-03-01 13:32:59.898
223.0, 28445.925229302076, 16003.625512555303, 0.0, -187500.02235174447, 0.0, 0.0, 0.0, -187500.02235174447, -0.272, 0.28800000000000003, -0.928, 192.0, 0.0, 0.0, 0.0, 0.0, 0.0, 0.0, 0.0, 0.0, 0.0, 1.677706379898945E9, 0.0, 2023-03-01 13:32:59.898
224.0, 28444.67353161258, 16015.561344094438, 0.0, -187500.02235174447, 0.0, 0.0, 0.0, -187500.02235174447, -0.272, 0.28800000000000003, -0.928, 192.0, 0.0, 0.0, 0.0, 0.0, 0.0, 0.0, 0.0, 0.0, 0.0, 1.677706379905499E9, 0.0, 2023-03-01 13:32:59.905
225.0, 28475.474235471993, 16068.400867986784, 0.0, -187500.02235174447, 0.0, 0.0, 0.0, -187500.02235174447, -0.272, 0.28800000000000003, -0.928, 192.0, 0.0, 0.0, 0.0, 0.0, 0.0, 0.0, 0.0, 0.0, 0.0, 1.677706379905513E9, 0.0, 2023-03-01 13:32:59.905
226.0, 28477.709409917523, 16046.764379354046, 0.0, -187500.02235174447, 0.0, 0.0, 0.0, -187500.02235174447, -0.272, 0.28800000000000003, -0.928, 192.0, 0.0, 0.0, 0.0, 0.0, 0.0, 0.0, 0.0, 0.0, 0.0, 1.677706379913566E9, 0.0, 2023-03-01 13:32:59.913
227.0, 28450.59674389324, 15990.683852515682, 0.0, -187500.02235174447, 0.0, 0.0, 0.0, -187500.02235174447, -0.272, 0.28800000000000003, -0.928, 192.0, 0.0, 0.0, 0.0, 0.0, 0.0, 0.0, 0.0, 0.0, 0.0, 1.67770637991358E9, 0.0, 2023-03-01 13:32:59.913
228.0, 28443.57829613427, 16004.474878844605, 0.0, -187500.02235174447, 0.0, 0.0, 0.0, -187500.02235174447, -0.272, 0.28800000000000003, -0.928, 192.0, 0.0, 0.0, 0.0, 0.0, 0.0, 0.0, 0.0, 0.0, 0.0, 1.677706379921566E9, 0.0, 2023-03-01 13:32:59.921
229.0, 28476.43536048357, 16065.964527841155, 0.0, -187500.02235174447, 0.0, 0.0, 0.0, -187500.02235174447, -0.272, 0.28800000000000003, -0.928, 192.0, 0.0, 0.0, 0.0, 0.0, 0.0, 0.0, 0.0, 0.0, 0.0, 1.677706379921575E9, 0.0, 2023-03-01 13:32:59.921
230.0, 28491.388677524174, 16066.255100519074, 0.0, -187500.02235174447, 0.0, 0.0, 0.0, -187500.02235174447, -0.272, 0.28800000000000003, -0.928, 192.0, 0.0, 0.0, 0.0, 0.0, 0.0, 0.0, 0.0, 0.0, 0.0, 1.677706379928764E9, 0.0, 2023-03-01 13:32:59.928
231.0, 28457.8163573523, 16004.296064888964, 0.0, -187500.02235174447, 0.0, 0.0, 0.0, -187500.02235174447, -0.274, 0.28800000000000003, -0.928, 192.0, 247.0, 112.0, 9.0, 0.0, 227.0, 0.0, 0.0, 0.0, 0.0, 1.677706379928785E9, 0.0, 2023-03-01 13:32:59.928
232.0, 28444.181793234566, 15993.857800228334, 0.0, -187500.02235174447, 0.0, 0.0, 0.0, -187500.02235174447, -0.274, 0.28800000000000003, -0.928, 192.0, 0.0, 0.0, 0.0, 0.0, 0.0, 0.0, 0.0, 0.0, 0.0, 1.677706379935114E9, 0.0, 2023-03-01 13:32:59.935
233.0, 28467.02527606789, 16056.107408536365, 0.0, -187500.02235174447, 0.0, 0.0, 0.0, -187500.02235174447, -0.274, 0.28800000000000003, -0.928, 192.0, 0.0, 0.0, 0.0, 0.0, 0.0, 0.0, 0.0, 0.0, 0.0, 1.677706379943262E9, 0.0, 2023-03-01 13:32:59.943
234.0, 28473.931965104577, 16066.925652852733, 0.0, -187500.02235174447, 0.0, 0.0, 0.0, -187500.02235174447, -0.274, 0.28800000000000003, -0.928, 192.0, 0.0, 0.0, 0.0, 0.0, 0.0, 0.0, 0.0, 0.0, 0.0, 1.677706379943281E9, 0.0, 2023-03-01 13:32:59.943
235.0, 28448.16040374761, 16010.174573680708, 0.0, -187500.02235174447, 0.0, 0.0, 0.0, -187500.02235174447, -0.274, 0.28800000000000003, -0.928, 192.0, 0.0, 0.0, 0.0, 0.0, 0.0, 0.0, 0.0, 0.0, 0.0, 1.677706379952588E9, 0.0, 2023-03-01 13:32:59.952
236.0, 28428.356758160207, 15980.53616053297, 0.0, -187500.02235174447, 0.0, 0.0, 0.0, -187500.02235174447, -0.274, 0.28800000000000003, -0.928, 192.0, 0.0, 0.0, 0.0, 0.0, 0.0, 0.0, 0.0, 0.0, 0.0, 1.677706379952601E9, 0.0, 2023-03-01 13:32:59.952
237.0, 28449.59091539275, 16031.878117546812, 0.0, -187500.02235174447, 0.0, 0.0, 0.0, -187500.02235174447, -0.274, 0.28800000000000003, -0.928, 192.0, 0.0, 0.0, 0.0, 0.0, 0.0, 0.0, 0.0, 0.0, 0.0, 1.677706379959018E9, 0.0, 2023-03-01 13:32:59.959
238.0, 28477.68705817307, 16066.03158307452, 0.0, -187500.02235174447, 0.0, 0.0, 0.0, -187500.02235174447, -0.274, 0.28800000000000003, -0.928, 192.0, 0.0, 0.0, 0.0, 0.0, 0.0, 0.0, 0.0, 0.0, 0.0, 1.677706379959027E9, 0.0, 2023-03-01 13:32:59.959
239.0, 28467.092331301254, 16036.214355971142, 0.0, -187500.02235174447, 0.0, 0.0, 0.0, -187500.02235174447, -0.274, 0.28800000000000003, -0.928, 192.0, 0.0, 0.0, 0.0, 0.0, 0.0, 0.0, 0.0, 0.0, 0.0, 1.677706379965776E9, 0.0, 2023-03-01 13:32:59.965
240.0, 28446.573429891283, 16010.912181247733, 0.0, -187500.02235174447, 0.0, 0.0, 0.0, -187500.02235174447, -0.274, 0.28800000000000003, -0.928, 192.0, 0.0, 0.0, 0.0, 0.0, 0.0, 0.0, 0.0, 0.0, 0.0, 1.677706379965785E9, 0.0, 2023-03-01 13:32:59.965
241.0, 28478.245851784453, 16049.066609032943, 0.0, -187500.02235174447, 0.0, 0.0, 0.0, -187500.02235174447, -0.268, 0.28800000000000003, -0.924, 192.0, 247.0, 160.0, 9.0, 0.0, 227.0, 32.0, 0.0, 0.0, 0.0, 1.677706379973791E9, 0.0, 2023-03-01 13:32:59.973
242.0, 28499.45765727254, 16086.349318784396, 0.0, -187500.02235174447, 0.0, 0.0, 0.0, -187500.02235174447, -0.268, 0.28800000000000003, -0.924, 192.0, 0.0, 0.0, 0.0, 0.0, 0.0, 0.0, 0.0, 0.0, 0.0, 1.677706379973806E9, 0.0, 2023-03-01 13:32:59.973
243.0, 28474.356648249228, 16043.45632117466, 0.0, -187500.02235174447, 0.0, 0.0, 0.0, -187500.02235174447, -0.268, 0.28800000000000003, -0.924, 192.0, 0.0, 0.0, 0.0, 0.0, 0.0, 0.0, 0.0, 0.0, 0.0, 1.677706379981831E9, 0.0, 2023-03-01 13:32:59.981
244.0, 28438.39269142064, 15988.716899003613, 0.0, -187500.02235174447, 0.0, 0.0, 0.0, -187500.02235174447, -0.268, 0.28800000000000003, -0.924, 192.0, 0.0, 0.0, 0.0, 0.0, 0.0, 0.0, 0.0, 0.0, 0.0, 1.677706379981848E9, 0.0, 2023-03-01 13:32:59.981
245.0, 28445.902877557623, 16019.048216229467, 0.0, -187500.02235174447, 0.0, 0.0, 0.0, -187500.02235174447, -0.268, 0.28800000000000003, -0.924, 192.0, 0.0, 0.0, 0.0, 0.0, 0.0, 0.0, 0.0, 0.0, 0.0, 1.677706379988398E9, 0.0, 2023-03-01 13:32:59.988
246.0, 28473.127302304187, 16075.911054123766, 0.0, -187500.02235174447, 0.0, 0.0, 0.0, -187500.02235174447, -0.268, 0.28800000000000003, -0.924, 192.0, 0.0, 0.0, 0.0, 0.0, 0.0, 0.0, 0.0, 0.0, 0.0, 1.677706379988416E9, 0.0, 2023-03-01 13:32:59.988
247.0, 28475.20601453853, 16053.715771879646, 0.0, -187500.02235174447, 0.0, 0.0, 0.0, -187500.02235174447, -0.268, 0.28800000000000003, -0.924, 192.0, 0.0, 0.0, 0.0, 0.0, 0.0, 0.0, 0.0, 0.0, 0.0, 1.677706379995418E9, 0.0, 2023-03-01 13:32:59.995
248.0, 28450.57439214878, 15999.535143319983, 0.0, -187500.02235174447, 0.0, 0.0, 0.0, -187500.02235174447, -0.268, 0.28800000000000003, -0.924, 192.0, 0.0, 0.0, 0.0, 0.0, 0.0, 0.0, 0.0, 0.0, 0.0, 1.677706379995429E9, 0.0, 2023-03-01 13:32:59.995
249.0, 28448.92036305909, 16009.749890536057, 0.0, -187500.02235174447, 0.0, 0.0, 0.0, -187500.02235174447, -0.268, 0.28800000000000003, -0.924, 192.0, 0.0, 0.0, 0.0, 0.0, 0.0, 0.0, 0.0, 0.0, 0.0, 1.677706380003481E9, 0.0, 2023-03-01 13:33:00.003
250.0, 28480.41397099662, 16070.65839417677, 0.0, -187500.02235174447, 0.0, 0.0, 0.0, -187500.02235174447, -0.268, 0.28800000000000003, -0.924, 192.0, 0.0, 0.0, 0.0, 0.0, 0.0, 0.0, 0.0, 0.0, 0.0, 1.677706380011497E9, 0.0, 2023-03-01 13:33:00.011
251.0, 28484.236119298475, 16066.32215575244, 0.0, -187500.02235174447, 0.0, 0.0, 0.0, -187500.02235174447, -0.272, 0.29, -0.922, 192.0, 247.0, 128.0, 9.0, 16.0, 227.0, 48.0, 0.0, 0.0, 0.0, 1.677706380011526E9, 0.0, 2023-03-01 13:33:00.011
252.0, 28460.722084131492, 16010.934532992189, 0.0, -187500.02235174447, 0.0, 0.0, 0.0, -187500.02235174447, -0.272, 0.29, -0.922, 192.0, 0.0, 0.0, 0.0, 0.0, 0.0, 0.0, 0.0, 0.0, 0.0, 1.677706380018289E9, 0.0, 2023-03-01 13:33:00.018
253.0, 28453.30130497233, 16002.798498010457, 0.0, -187500.02235174447, 0.0, 0.0, 0.0, -187500.02235174447, -0.272, 0.29, -0.922, 192.0, 0.0, 0.0, 0.0, 0.0, 0.0, 0.0, 0.0, 0.0, 0.0, 1.677706380018319E9, 0.0, 2023-03-01 13:33:00.018
254.0, 28477.26237502842, 16062.164731283752, 0.0, -187500.02235174447, 0.0, 0.0, 0.0, -187500.02235174447, -0.272, 0.29, -0.922, 192.0, 0.0, 0.0, 0.0, 0.0, 0.0, 0.0, 0.0, 0.0, 0.0, 1.677706380026175E9, 0.0, 2023-03-01 13:33:00.026
255.0, 28487.745343177958, 16067.573853441938, 0.0, -187500.02235174447, 0.0, 0.0, 0.0, -187500.02235174447, -0.272, 0.29, -0.922, 192.0, 0.0, 0.0, 0.0, 0.0, 0.0, 0.0, 0.0, 0.0, 0.0, 1.677706380026221E9, 0.0, 2023-03-01 13:33:00.026
0.0, 28458.64337189715, 16015.382530138795, 0.0, -187500.02235174447, 0.0, 0.0, 0.0, -187500.02235174447, -0.272, 0.29, -0.922, 192.0, 0.0, 0.0, 0.0, 0.0, 0.0, 0.0, 0.0, 0.0, 0.0, 1.677706380034168E9, 0.0, 2023-03-01 13:33:00.034
1.0, 28431.083670983753, 16002.418518354718, 0.0, -187500.02235174447, 0.0, 0.0, 0.0, -187500.02235174447, -0.272, 0.29, -0.922, 192.0, 0.0, 0.0, 0.0, 0.0, 0.0, 0.0, 0.0, 0.0, 0.0, 1.677706380034182E9, 0.0, 2023-03-01 13:33:00.034
2.0, 28455.692941629048, 16053.760475368557, 0.0, -187500.02235174447, 0.0, 0.0, 0.0, -187500.02235174447, -0.272, 0.29, -0.922, 192.0, 0.0, 0.0, 0.0, 0.0, 0.0, 0.0, 0.0, 0.0, 0.0, 1.677706380041405E9, 0.0, 2023-03-01 13:33:00.041
3.0, 28474.378999993685, 16074.32408026744, 0.0, -187500.02235174447, 0.0, 0.0, 0.0, -187500.02235174447, -0.272, 0.29, -0.922, 192.0, 0.0, 0.0, 0.0, 0.0, 0.0, 0.0, 0.0, 0.0, 0.0, 1.677706380041417E9, 0.0, 2023-03-01 13:33:00.041
4.0, 28449.993246792943, 16021.529259864004, 0.0, -187500.02235174447, 0.0, 0.0, 0.0, -187500.02235174447, -0.272, 0.29, -0.922, 192.0, 0.0, 0.0, 0.0, 0.0, 0.0, 0.0, 0.0, 0.0, 0.0, 1.677706380049498E9, 0.0, 2023-03-01 13:33:00.049
5.0, 28431.15072621712, 15989.700375759647, 0.0, -187500.02235174447, 0.0, 0.0, 0.0, -187500.02235174447, -0.276, 0.29, -0.924, 192.0, 247.0, 96.0, 9.0, 16.0, 227.0, 32.0, 0.0, 0.0, 0.0, 1.677706380049509E9, 0.0, 2023-03-01 13:33:00.049
6.0, 28470.579203436282, 16049.468940433138, 0.0, -187500.02235174447, 0.0, 0.0, 0.0, -187500.02235174447, -0.276, 0.29, -0.924, 192.0, 0.0, 0.0, 0.0, 0.0, 0.0, 0.0, 0.0, 0.0, 0.0, 1.67770638005599E9, 0.0, 2023-03-01 13:33:00.055
7.0, 28499.010622383434, 16090.909074653278, 0.0, -187500.02235174447, 0.0, 0.0, 0.0, -187500.02235174447, -0.276, 0.29, -0.924, 192.0, 0.0, 0.0, 0.0, 0.0, 0.0, 0.0, 0.0, 0.0, 0.0, 1.677706380056008E9, 0.0, 2023-03-01 13:33:00.056
8.0, 28480.682191930082, 16043.791597341491, 0.0, -187500.02235174447, 0.0, 0.0, 0.0, -187500.02235174447, -0.276, 0.29, -0.924, 192.0, 0.0, 0.0, 0.0, 0.0, 0.0, 0.0, 0.0, 0.0, 0.0, 1.677706380063074E9, 0.0, 2023-03-01 13:33:00.063
9.0, 28452.63075263867, 16000.563323564927, 0.0, -187500.02235174447, 0.0, 0.0, 0.0, -187500.02235174447, -0.276, 0.29, -0.924, 192.0, 0.0, 0.0, 0.0, 0.0, 0.0, 0.0, 0.0, 0.0, 0.0, 1.677706380071051E9, 0.0, 2023-03-01 13:33:00.071
10.0, 28456.408197451616, 16040.08120776191, 0.0, -187500.02235174447, 0.0, 0.0, 0.0, -187500.02235174447, -0.276, 0.29, -0.924, 192.0, 0.0, 0.0, 0.0, 0.0, 0.0, 0.0, 0.0, 0.0, 0.0, 1.677706380071065E9, 0.0, 2023-03-01 13:33:00.071
11.0, 28484.370229765205, 16081.90132163779, 0.0, -187500.02235174447, 0.0, 0.0, 0.0, -187500.02235174447, -0.276, 0.29, -0.924, 192.0, 0.0, 0.0, 0.0, 0.0, 0.0, 0.0, 0.0, 0.0, 0.0, 1.677706380079053E9, 0.0, 2023-03-01 13:33:00.079
12.0, 28468.50049120194, 16046.22793748712, 0.0, -187500.02235174447, 0.0, 0.0, 0.0, -187500.02235174447, -0.276, 0.29, -0.924, 192.0, 0.0, 0.0, 0.0, 0.0, 0.0, 0.0, 0.0, 0.0, 0.0, 1.677706380079063E9, 0.0, 2023-03-01 13:33:00.079
13.0, 28434.190563463042, 15994.9753874511, 0.0, -187500.02235174447, 0.0, 0.0, 0.0, -187500.02235174447, -0.276, 0.29, -0.924, 192.0, 0.0, 0.0, 0.0, 0.0, 0.0, 0.0, 0.0, 0.0, 0.0, 1.677706380085754E9, 0.0, 2023-03-01 13:33:00.085
14.0, 28453.92715381708, 16039.231841472609, 0.0, -187500.02235174447, 0.0, 0.0, 0.0, -187500.02235174447, -0.276, 0.29, -0.924, 192.0, 0.0, 0.0, 0.0, 0.0, 0.0, 0.0, 0.0, 0.0, 0.0, 1.677706380085766E9, 0.0, 2023-03-01 13:33:00.085
15.0, 28487.275956544396, 16091.534923498026, 0.0, -187500.02235174447, 0.0, 0.0, 0.0, -187500.02235174447, -0.276, 0.28800000000000003, -0.92, 192.0, 247.0, 96.0, 9.0, 0.0, 227.0, 64.0, 0.0, 0.0, 0.0, 1.677706380093661E9, 0.0, 2023-03-01 13:33:00.093
16.0, 28477.821168639803, 16064.51166445156, 0.0, -187500.02235174447, 0.0, 0.0, 0.0, -187500.02235174447, -0.276, 0.28800000000000003, -0.92, 192.0, 0.0, 0.0, 0.0, 0.0, 0.0, 0.0, 0.0, 0.0, 0.0, 1.677706380093712E9, 0.0, 2023-03-01 13:33:00.093
17.0, 28445.455842668518, 16005.570114322916, 0.0, -187500.02235174447, 0.0, 0.0, 0.0, -187500.02235174447, -0.276, 0.28800000000000003, -0.92, 192.0, 0.0, 0.0, 0.0, 0.0, 0.0, 0.0, 0.0, 0.0, 0.0, 1.677706380101631E9, 0.0, 2023-03-01 13:33:00.101
18.0, 28450.507336915416, 16019.897582518768, 0.0, -187500.02235174447, 0.0, 0.0, 0.0, -187500.02235174447, -0.276, 0.28800000000000003, -0.92, 192.0, 0.0, 0.0, 0.0, 0.0, 0.0, 0.0, 0.0, 0.0, 0.0, 1.677706380101646E9, 0.0, 2023-03-01 13:33:00.101
19.0, 28507.459581787538, 16098.352205556896, 0.0, -187500.02235174447, 0.0, 0.0, 0.0, -187500.02235174447, -0.276, 0.28800000000000003, -0.92, 192.0, 0.0, 0.0, 0.0, 0.0, 0.0, 0.0, 0.0, 0.0, 0.0, 1.677706380108838E9, 0.0, 2023-03-01 13:33:00.108
20.0, 28508.845389943766, 16085.812876917467, 0.0, -187500.02235174447, 0.0, 0.0, 0.0, -187500.02235174447, -0.276, 0.28800000000000003, -0.92, 192.0, 0.0, 0.0, 0.0, 0.0, 0.0, 0.0, 0.0, 0.0, 0.0, 1.677706380108855E9, 0.0, 2023-03-01 13:33:00.108
21.0, 28446.30520895782, 16003.245532899564, 0.0, -187500.02235174447, 0.0, 0.0, 0.0, -187500.02235174447, -0.276, 0.28800000000000003, -0.92, 192.0, 0.0, 0.0, 0.0, 0.0, 0.0, 0.0, 0.0, 0.0, 0.0, 1.677706380116291E9, 0.0, 2023-03-01 13:33:00.116
22.0, 28432.737700073445, 15996.025919440499, 0.0, -187500.02235174447, 0.0, 0.0, 0.0, -187500.02235174447, -0.276, 0.28800000000000003, -0.92, 192.0, 0.0, 0.0, 0.0, 0.0, 0.0, 0.0, 0.0, 0.0, 0.0, 1.677706380116306E9, 0.0, 2023-03-01 13:33:00.116
23.0, 28478.31290701782, 16066.568024941449, 0.0, -187500.02235174447, 0.0, 0.0, 0.0, -187500.02235174447, -0.276, 0.28800000000000003, -0.92, 192.0, 0.0, 0.0, 0.0, 0.0, 0.0, 0.0, 0.0, 0.0, 0.0, 1.67770638012487E9, 0.0, 2023-03-01 13:33:00.124
24.0, 28488.281785044885, 16065.741010396601, 0.0, -187500.02235174447, 0.0, 0.0, 0.0, -187500.02235174447, -0.276, 0.28800000000000003, -0.92, 192.0, 0.0, 0.0, 0.0, 0.0, 0.0, 0.0, 0.0, 0.0, 0.0, 1.677706380131257E9, 0.0, 2023-03-01 13:33:00.131
25.0, 28456.698770129537, 16006.598294567859, 0.0, -187500.02235174447, 0.0, 0.0, 0.0, -187500.02235174447, -0.272, 0.28600000000000003, -0.92, 192.0, 247.0, 128.0, 8.0, 240.0, 227.0, 64.0, 0.0, 0.0, 0.0, 1.677706380131268E9, 0.0, 2023-03-01 13:33:00.131
26.0, 28434.52583962987, 15985.006509424033, 0.0, -187500.02235174447, 0.0, 0.0, 0.0, -187500.02235174447, -0.272, 0.28600000000000003, -0.92, 192.0, 0.0, 0.0, 0.0, 0.0, 0.0, 0.0, 0.0, 0.0, 0.0, 1.677706380138007E9, 0.0, 2023-03-01 13:33:00.138
27.0, 28450.99907529343, 16025.820794799423, 0.0, -187500.02235174447, 0.0, 0.0, 0.0, -187500.02235174447, -0.272, 0.28600000000000003, -0.92, 192.0, 0.0, 0.0, 0.0, 0.0, 0.0, 0.0, 0.0, 0.0, 0.0, 1.677706380138024E9, 0.0, 2023-03-01 13:33:00.138
28.0, 28472.993191837453, 16027.854803544857, 0.0, -187500.02235174447, 0.0, 0.0, 0.0, -187500.02235174447, -0.272, 0.28600000000000003, -0.92, 192.0, 0.0, 0.0, 0.0, 0.0, 0.0, 0.0, 0.0, 0.0, 0.0, 1.677706380145958E9, 0.0, 2023-03-01 13:33:00.145
29.0, 28452.116662516197, 15984.626529768293, 0.0, -187500.02235174447, 0.0, 0.0, 0.0, -187500.02235174447, -0.272, 0.28600000000000003, -0.92, 192.0, 0.0, 0.0, 0.0, 0.0, 0.0, 0.0, 0.0, 0.0, 0.0, 1.677706380145973E9, 0.0, 2023-03-01 13:33:00.145
30.0, 28429.407290149607, 15963.638241724759, 0.0, -187500.02235174447, 0.0, 0.0, 0.0, -187500.02235174447, -0.272, 0.28600000000000003, -0.92, 192.0, 0.0, 0.0, 0.0, 0.0, 0.0, 0.0, 0.0, 0.0, 0.0, 1.67770638015403E9, 0.0, 2023-03-01 13:33:00.154
31.0, 28461.88437484317, 16012.186230681686, 0.0, -187500.02235174447, 0.0, 0.0, 0.0, -187500.02235174447, -0.272, 0.28600000000000003, -0.92, 192.0, 0.0, 0.0, 0.0, 0.0, 0.0, 0.0, 0.0, 0.0, 0.0, 1.677706380154051E9, 0.0, 2023-03-01 13:33:00.154
32.0, 28482.179758808586, 16048.396056699285, 0.0, -187500.02235174447, 0.0, 0.0, 0.0, -187500.02235174447, -0.272, 0.28600000000000003, -0.92, 192.0, 0.0, 0.0, 0.0, 0.0, 0.0, 0.0, 0.0, 0.0, 0.0, 1.677706380161133E9, 0.0, 2023-03-01 13:33:00.161
33.0, 28467.44995921254, 16010.196925425163, 0.0, -187500.02235174447, 0.0, 0.0, 0.0, -187500.02235174447, -0.272, 0.28600000000000003, -0.92, 192.0, 0.0, 0.0, 0.0, 0.0, 0.0, 0.0, 0.0, 0.0, 0.0, 1.677706380161149E9, 0.0, 2023-03-01 13:33:00.161
34.0, 28447.601610136226, 15970.410820294717, 0.0, -187500.02235174447, 0.0, 0.0, 0.0, -187500.02235174447, -0.272, 0.28600000000000003, -0.92, 192.0, 0.0, 0.0, 0.0, 0.0, 0.0, 0.0, 0.0, 0.0, 0.0, 1.677706380169062E9, 0.0, 2023-03-01 13:33:00.169
35.0, 28461.996133565444, 16015.270771416519, 0.0, -187500.02235174447, 0.0, 0.0, 0.0, -187500.02235174447, -0.276, 0.294, -0.916, 192.0, 247.0, 96.0, 9.0, 48.0, 227.0, 96.0, 0.0, 0.0, 0.0, 1.677706380169073E9, 0.0, 2023-03-01 13:33:00.169
36.0, 28507.034898642887, 16071.41835348825, 0.0, -187500.02235174447, 0.0, 0.0, 0.0, -187500.02235174447, -0.276, 0.294, -0.916, 192.0, 0.0, 0.0, 0.0, 0.0, 0.0, 0.0, 0.0, 0.0, 0.0, 1.677706380176591E9, 0.0, 2023-03-01 13:33:00.176
37.0, 28494.652032214646, 16029.128852978809, 0.0, -187500.02235174447, 0.0, 0.0, 0.0, -187500.02235174447, -0.276, 0.294, -0.916, 192.0, 0.0, 0.0, 0.0, 0.0, 0.0, 0.0, 0.0, 0.0, 0.0, 1.677706380176604E9, 0.0, 2023-03-01 13:33:00.176
38.0, 28454.24007823945, 15966.87924467078, 0.0, -187500.02235174447, 0.0, 0.0, 0.0, -187500.02235174447, -0.276, 0.294, -0.916, 192.0, 0.0, 0.0, 0.0, 0.0, 0.0, 0.0, 0.0, 0.0, 0.0, 1.677706380183569E9, 0.0, 2023-03-01 13:33:00.183
39.0, 28446.796947335835, 15996.227085140597, 0.0, -187500.02235174447, 0.0, 0.0, 0.0, -187500.02235174447, -0.276, 0.294, -0.916, 192.0, 0.0, 0.0, 0.0, 0.0, 0.0, 0.0, 0.0, 0.0, 0.0, 1.677706380190715E9, 0.0, 2023-03-01 13:33:00.190
40.0, 28478.268203528907, 16057.739085881602, 0.0, -187500.02235174447, 0.0, 0.0, 0.0, -187500.02235174447, -0.276, 0.294, -0.916, 192.0, 0.0, 0.0, 0.0, 0.0, 0.0, 0.0, 0.0, 0.0, 0.0, 1.677706380190733E9, 0.0, 2023-03-01 13:33:00.190
41.0, 28483.25264254244, 16032.034579758, 0.0, -187500.02235174447, 0.0, 0.0, 0.0, -187500.02235174447, -0.276, 0.294, -0.916, 192.0, 0.0, 0.0, 0.0, 0.0, 0.0, 0.0, 0.0, 0.0, 0.0, 1.677706380198482E9, 0.0, 2023-03-01 13:33:00.198
42.0, 28455.558831162314, 15982.793686722958, 0.0, -187500.02235174447, 0.0, 0.0, 0.0, -187500.02235174447, -0.276, 0.294, -0.916, 192.0, 0.0, 0.0, 0.0, 0.0, 0.0, 0.0, 0.0, 0.0, 0.0, 1.677706380198499E9, 0.0, 2023-03-01 13:33:00.198
43.0, 28456.363493962708, 15992.092012416366, 0.0, -187500.02235174447, 0.0, 0.0, 0.0, -187500.02235174447, -0.276, 0.294, -0.916, 192.0, 0.0, 0.0, 0.0, 0.0, 0.0, 0.0, 0.0, 0.0, 0.0, 1.677706380206311E9, 0.0, 2023-03-01 13:33:00.206
44.0, 28493.646203714157, 16055.101580035876, 0.0, -187500.02235174447, 0.0, 0.0, 0.0, -187500.02235174447, -0.276, 0.294, -0.916, 192.0, 0.0, 0.0, 0.0, 0.0, 0.0, 0.0, 0.0, 0.0, 0.0, 1.677706380206323E9, 0.0, 2023-03-01 13:33:00.206
45.0, 28499.792933439367, 16060.08601904941, 0.0, -187500.02235174447, 0.0, 0.0, 0.0, -187500.02235174447, -0.276, 0.294, -0.916, 192.0, 0.0, 0.0, 0.0, 0.0, 0.0, 0.0, 0.0, 0.0, 0.0, 1.677706380214303E9, 0.0, 2023-03-01 13:33:00.214
46.0, 28472.38969473716, 15997.054099685443, 0.0, -187500.02235174447, 0.0, 0.0, 0.0, -187500.02235174447, -0.274, 0.28800000000000003, -0.928, 192.0, 247.0, 112.0, 9.0, 0.0, 227.0, 0.0, 0.0, 0.0, 0.0, 1.677706380214318E9, 0.0, 2023-03-01 13:33:00.214
47.0, 28467.82993886828, 15991.063832171421, 0.0, -187500.02235174447, 0.0, 0.0, 0.0, -187500.02235174447, -0.274, 0.28800000000000003, -0.928, 192.0, 0.0, 0.0, 0.0, 0.0, 0.0, 0.0, 0.0, 0.0, 0.0, 1.677706380220827E9, 0.0, 2023-03-01 13:33:00.220
48.0, 28493.132113591688, 16053.268736990542, 0.0, -187500.02235174447, 0.0, 0.0, 0.0, -187500.02235174447, -0.274, 0.28800000000000003, -0.928, 192.0, 0.0, 0.0, 0.0, 0.0, 0.0, 0.0, 0.0, 0.0, 0.0, 1.677706380220866E9, 0.0, 2023-03-01 13:33:00.220
49.0, 28486.940680377567, 16056.554443425472, 0.0, -187500.02235174447, 0.0, 0.0, 0.0, -187500.02235174447, -0.274, 0.28800000000000003, -0.928, 192.0, 0.0, 0.0, 0.0, 0.0, 0.0, 0.0, 0.0, 0.0, 0.0, 1.677706380228887E9, 0.0, 2023-03-01 13:33:00.228
50.0, 28457.548136418838, 16001.390338109773, 0.0, -187500.02235174447, 0.0, 0.0, 0.0, -187500.02235174447, -0.274, 0.28800000000000003, -0.928, 192.0, 0.0, 0.0, 0.0, 0.0, 0.0, 0.0, 0.0, 0.0, 0.0, 1.677706380228902E9, 0.0, 2023-03-01 13:33:00.228
51.0, 28449.1662322481, 15981.564340777915, 0.0, -187500.02235174447, 0.0, 0.0, 0.0, -187500.02235174447, -0.274, 0.28800000000000003, -0.928, 192.0, 0.0, 0.0, 0.0, 0.0, 0.0, 0.0, 0.0, 0.0, 0.0, 1.677706380236922E9, 0.0, 2023-03-01 13:33:00.236
52.0, 28484.794912909856, 16040.17061473973, 0.0, -187500.02235174447, 0.0, 0.0, 0.0, -187500.02235174447, -0.274, 0.28800000000000003, -0.928, 192.0, 0.0, 0.0, 0.0, 0.0, 0.0, 0.0, 0.0, 0.0, 0.0, 1.677706380236936E9, 0.0, 2023-03-01 13:33:00.236
53.0, 28504.30798581934, 16069.831379631923, 0.0, -187500.02235174447, 0.0, 0.0, 0.0, -187500.02235174447, -0.274, 0.28800000000000003, -0.928, 192.0, 0.0, 0.0, 0.0, 0.0, 0.0, 0.0, 0.0, 0.0, 0.0, 1.677706380244021E9, 0.0, 2023-03-01 13:33:00.244
54.0, 28478.201148295542, 16026.938382022188, 0.0, -187500.02235174447, 0.0, 0.0, 0.0, -187500.02235174447, -0.274, 0.28800000000000003, -0.928, 192.0, 0.0, 0.0, 0.0, 0.0, 0.0, 0.0, 0.0, 0.0, 0.0, 1.677706380244035E9, 0.0, 2023-03-01 13:33:00.244
55.0, 28456.7658253629, 15984.917102446212, 0.0, -187500.02235174447, 0.0, 0.0, 0.0, -187500.02235174447, -0.274, 0.28800000000000003, -0.928, 192.0, 0.0, 0.0, 0.0, 0.0, 0.0, 0.0, 0.0, 0.0, 0.0, 1.677706380250494E9, 0.0, 2023-03-01 13:33:00.250
56.0, 28475.42953198308, 16022.535088364493, 0.0, -187500.02235174447, 0.0, 0.0, 0.0, -187500.02235174447, -0.27, 0.28200000000000003, -0.916, 192.0, 247.0, 144.0, 8.0, 208.0, 227.0, 96.0, 0.0, 0.0, 0.0, 1.677706380258545E9, 0.0, 2023-03-01 13:33:00.258
57.0, 28499.949395650554, 16057.336754481406, 0.0, -187500.02235174447, 0.0, 0.0, 0.0, -187500.02235174447, -0.27, 0.28200000000000003, -0.916, 192.0, 0.0, 0.0, 0.0, 0.0, 0.0, 0.0, 0.0, 0.0, 0.0, 1.677706380258557E9, 0.0, 2023-03-01 13:33:00.258
58.0, 28480.39161925216, 16019.74112030758, 0.0, -187500.02235174447, 0.0, 0.0, 0.0, -187500.02235174447, -0.27, 0.28200000000000003, -0.916, 192.0, 0.0, 0.0, 0.0, 0.0, 0.0, 0.0, 0.0, 0.0, 0.0, 1.677706380266493E9, 0.0, 2023-03-01 13:33:00.266
59.0, 28454.843575339746, 15971.953090662133, 0.0, -187500.02235174447, 0.0, 0.0, 0.0, -187500.02235174447, -0.27, 0.28200000000000003, -0.916, 192.0, 0.0, 0.0, 0.0, 0.0, 0.0, 0.0, 0.0, 0.0, 0.0, 1.677706380266506E9, 0.0, 2023-03-01 13:33:00.266
60.0, 28469.796892380346, 16013.795556282468, 0.0, -187500.02235174447, 0.0, 0.0, 0.0, -187500.02235174447, -0.27, 0.28200000000000003, -0.916, 192.0, 0.0, 0.0, 0.0, 0.0, 0.0, 0.0, 0.0, 0.0, 0.0, 1.677706380273724E9, 0.0, 2023-03-01 13:33:00.273
61.0, 28505.40322129765, 16075.687536679214, 0.0, -187500.02235174447, 0.0, 0.0, 0.0, -187500.02235174447, -0.27, 0.28200000000000003, -0.916, 192.0, 0.0, 0.0, 0.0, 0.0, 0.0, 0.0, 0.0, 0.0, 0.0, 1.677706380273743E9, 0.0, 2023-03-01 13:33:00.273
62.0, 28503.950357908056, 16052.486425934605, 0.0, -187500.02235174447, 0.0, 0.0, 0.0, -187500.02235174447, -0.27, 0.28200000000000003, -0.916, 192.0, 0.0, 0.0, 0.0, 0.0, 0.0, 0.0, 0.0, 0.0, 0.0, 1.677706380281216E9, 0.0, 2023-03-01 13:33:00.281
63.0, 28477.754113406434, 16000.920951476211, 0.0, -187500.02235174447, 0.0, 0.0, 0.0, -187500.02235174447, -0.27, 0.28200000000000003, -0.916, 192.0, 0.0, 0.0, 0.0, 0.0, 0.0, 0.0, 0.0, 0.0, 0.0, 1.677706380281237E9, 0.0, 2023-03-01 13:33:00.281
64.0, 28489.22055831201, 16028.346541922874, 0.0, -187500.02235174447, 0.0, 0.0, 0.0, -187500.02235174447, -0.27, 0.28200000000000003, -0.916, 192.0, 0.0, 0.0, 0.0, 0.0, 0.0, 0.0, 0.0, 0.0, 0.0, 1.677706380289242E9, 0.0, 2023-03-01 13:33:00.289
65.0, 28522.055270916855, 16081.700155937691, 0.0, -187500.02235174447, 0.0, 0.0, 0.0, -187500.02235174447, -0.27, 0.28200000000000003, -0.916, 192.0, 0.0, 0.0, 0.0, 0.0, 0.0, 0.0, 0.0, 0.0, 0.0, 1.677706380289272E9, 0.0, 2023-03-01 13:33:00.289
66.0, 28506.811381198335, 16056.733257381113, 0.0, -187500.02235174447, 0.0, 0.0, 0.0, -187500.02235174447, -0.27, 0.294, -0.918, 192.0, 247.0, 144.0, 9.0, 48.0, 227.0, 80.0, 0.0, 0.0, 0.0, 1.677706380297839E9, 0.0, 2023-03-01 13:33:00.297
67.0, 28462.957258577022, 15983.911273945723, 0.0, -187500.02235174447, 0.0, 0.0, 0.0, -187500.02235174447, -0.27, 0.294, -0.918, 192.0, 0.0, 0.0, 0.0, 0.0, 0.0, 0.0, 0.0, 0.0, 0.0, 1.677706380297852E9, 0.0, 2023-03-01 13:33:00.297
68.0, 28455.894107329146, 15981.385526822272, 0.0, -187500.02235174447, 0.0, 0.0, 0.0, -187500.02235174447, -0.27, 0.294, -0.918, 192.0, 0.0, 0.0, 0.0, 0.0, 0.0, 0.0, 0.0, 0.0, 0.0, 1.677706380304187E9, 0.0, 2023-03-01 13:33:00.304
69.0, 28482.760904164425, 16042.897527563278, 0.0, -187500.02235174447, 0.0, 0.0, 0.0, -187500.02235174447, -0.27, 0.294, -0.918, 192.0, 0.0, 0.0, 0.0, 0.0, 0.0, 0.0, 0.0, 0.0, 0.0, 1.677706380304198E9, 0.0, 2023-03-01 13:33:00.304
70.0, 28493.959128136532, 16047.524338665527, 0.0, -187500.02235174447, 0.0, 0.0, 0.0, -187500.02235174447, -0.27, 0.294, -0.918, 192.0, 0.0, 0.0, 0.0, 0.0, 0.0, 0.0, 0.0, 0.0, 0.0, 1.67770638031083E9, 0.0, 2023-03-01 13:33:00.310
71.0, 28469.215747024507, 15993.433117083683, 0.0, -187500.02235174447, 0.0, 0.0, 0.0, -187500.02235174447, -0.27, 0.294, -0.918, 192.0, 0.0, 0.0, 0.0, 0.0, 0.0, 0.0, 0.0, 0.0, 0.0, 1.677706380318852E9, 0.0, 2023-03-01 13:33:00.318
72.0, 28465.304191744828, 15981.810209966925, 0.0, -187500.02235174447, 0.0, 0.0, 0.0, -187500.02235174447, -0.27, 0.294, -0.918, 192.0, 0.0, 0.0, 0.0, 0.0, 0.0, 0.0, 0.0, 0.0, 0.0, 1.67770638031887E9, 0.0, 2023-03-01 13:33:00.318
73.0, 28494.137942092177, 16041.802292084969, 0.0, -187500.02235174447, 0.0, 0.0, 0.0, -187500.02235174447, -0.27, 0.294, -0.918, 192.0, 0.0, 0.0, 0.0, 0.0, 0.0, 0.0, 0.0, 0.0, 0.0, 1.677706380326883E9, 0.0, 2023-03-01 13:33:00.326
74.0, 28508.957148666042, 16062.27649000603, 0.0, -187500.02235174447, 0.0, 0.0, 0.0, -187500.02235174447, -0.27, 0.294, -0.918, 192.0, 0.0, 0.0, 0.0, 0.0, 0.0, 0.0, 0.0, 0.0, 0.0, 1.677706380326898E9, 0.0, 2023-03-01 13:33:00.326
75.0, 28489.801703667847, 16022.378626153306, 0.0, -187500.02235174447, 0.0, 0.0, 0.0, -187500.02235174447, -0.27, 0.294, -0.918, 192.0, 0.0, 0.0, 0.0, 0.0, 0.0, 0.0, 0.0, 0.0, 0.0, 1.677706380333437E9, 0.0, 2023-03-01 13:33:00.333
76.0, 28474.535462204873, 15997.188210152175, 0.0, -187500.02235174447, 0.0, 0.0, 0.0, -187500.02235174447, -0.274, 0.29, -0.922, 192.0, 247.0, 112.0, 9.0, 16.0, 227.0, 48.0, 0.0, 0.0, 0.0, 1.67770638033345E9, 0.0, 2023-03-01 13:33:00.333
77.0, 28504.26328233043, 16047.010248543054, 0.0, -187500.02235174447, 0.0, 0.0, 0.0, -187500.02235174447, -0.274, 0.29, -0.922, 192.0, 0.0, 0.0, 0.0, 0.0, 0.0, 0.0, 0.0, 0.0, 0.0, 1.677706380341502E9, 0.0, 2023-03-01 13:33:00.341
78.0, 28519.26130285994, 16076.313385523963, 0.0, -187500.02235174447, 0.0, 0.0, 0.0, -187500.02235174447, -0.274, 0.29, -0.922, 192.0, 0.0, 0.0, 0.0, 0.0, 0.0, 0.0, 0.0, 0.0, 0.0, 1.677706380341517E9, 0.0, 2023-03-01 13:33:00.341
79.0, 28489.77935192339, 16033.26392570304, 0.0, -187500.02235174447, 0.0, 0.0, 0.0, -187500.02235174447, -0.274, 0.29, -0.922, 192.0, 0.0, 0.0, 0.0, 0.0, 0.0, 0.0, 0.0, 0.0, 0.0, 1.677706380349436E9, 0.0, 2023-03-01 13:33:00.349
80.0, 28462.510223687917, 15987.800477480947, 0.0, -187500.02235174447, 0.0, 0.0, 0.0, -187500.02235174447, -0.274, 0.29, -0.922, 192.0, 0.0, 0.0, 0.0, 0.0, 0.0, 0.0, 0.0, 0.0, 0.0, 1.677706380349449E9, 0.0, 2023-03-01 13:33:00.349
81.0, 28486.35953502173, 16021.864536030835, 0.0, -187500.02235174447, 0.0, 0.0, 0.0, -187500.02235174447, -0.274, 0.29, -0.922, 192.0, 0.0, 0.0, 0.0, 0.0, 0.0, 0.0, 0.0, 0.0, 0.0, 1.677706380356118E9, 0.0, 2023-03-01 13:33:00.356
82.0, 28516.668500503125, 16065.182216785219, 0.0, -187500.02235174447, 0.0, 0.0, 0.0, -187500.02235174447, -0.274, 0.29, -0.922, 192.0, 0.0, 0.0, 0.0, 0.0, 0.0, 0.0, 0.0, 0.0, 0.0, 1.677706380356139E9, 0.0, 2023-03-01 13:33:00.356
83.0, 28502.318680562817, 16036.728446093613, 0.0, -187500.02235174447, 0.0, 0.0, 0.0, -187500.02235174447, -0.274, 0.29, -0.922, 192.0, 0.0, 0.0, 0.0, 0.0, 0.0, 0.0, 0.0, 0.0, 0.0, 1.677706380364054E9, 0.0, 2023-03-01 13:33:00.364
84.0, 28476.63652618367, 15990.326224604396, 0.0, -187500.02235174447, 0.0, 0.0, 0.0, -187500.02235174447, -0.274, 0.29, -0.922, 192.0, 0.0, 0.0, 0.0, 0.0, 0.0, 0.0, 0.0, 0.0, 0.0, 1.677706380364069E9, 0.0, 2023-03-01 13:33:00.364
85.0, 28492.707430447037, 16033.375684425317, 0.0, -187500.02235174447, 0.0, 0.0, 0.0, -187500.02235174447, -0.274, 0.29, -0.922, 192.0, 0.0, 0.0, 0.0, 0.0, 0.0, 0.0, 0.0, 0.0, 0.0, 1.677706380371076E9, 0.0, 2023-03-01 13:33:00.371
86.0, 28529.632512287204, 16095.178257844242, 0.0, -187500.02235174447, 0.0, 0.0, 0.0, -187500.02235174447, -0.274, 0.294, -0.916, 192.0, 247.0, 112.0, 9.0, 48.0, 227.0, 96.0, 0.0, 0.0, 0.0, 1.677706380381195E9, 0.0, 2023-03-01 13:33:00.381
87.0, 28510.812343455833, 16057.31440273695, 0.0, -187500.02235174447, 0.0, 0.0, 0.0, -187500.02235174447, -0.274, 0.294, -0.916, 192.0, 0.0, 0.0, 0.0, 0.0, 0.0, 0.0, 0.0, 0.0, 0.0, 1.677706380381207E9, 0.0, 2023-03-01 13:33:00.381
88.0, 28458.57631666378, 15982.369003578307, 0.0, -187500.02235174447, 0.0, 0.0, 0.0, -187500.02235174447, -0.274, 0.294, -0.916, 192.0, 0.0, 0.0, 0.0, 0.0, 0.0, 0.0, 0.0, 0.0, 0.0, 1.677706380387328E9, 0.0, 2023-03-01 13:33:00.387
89.0, 28454.91063057311, 15997.568189807915, 0.0, -187500.02235174447, 0.0, 0.0, 0.0, -187500.02235174447, -0.274, 0.294, -0.916, 192.0, 0.0, 0.0, 0.0, 0.0, 0.0, 0.0, 0.0, 0.0, 0.0, 1.677706380387337E9, 0.0, 2023-03-01 13:33:00.387
90.0, 28491.67925020209, 16062.343545239395, 0.0, -187500.02235174447, 0.0, 0.0, 0.0, -187500.02235174447, -0.274, 0.294, -0.916, 192.0, 0.0, 0.0, 0.0, 0.0, 0.0, 0.0, 0.0, 0.0, 0.0, 1.677706380393657E9, 0.0, 2023-03-01 13:33:00.393
91.0, 28493.288575802875, 16048.55251891047, 0.0, -187500.02235174447, 0.0, 0.0, 0.0, -187500.02235174447, -0.274, 0.294, -0.916, 192.0, 0.0, 0.0, 0.0, 0.0, 0.0, 0.0, 0.0, 0.0, 0.0, 1.677706380393674E9, 0.0, 2023-03-01 13:33:00.393
92.0, 28451.0661305268, 15979.150352376742, 0.0, -187500.02235174447, 0.0, 0.0, 0.0, -187500.02235174447, -0.274, 0.294, -0.916, 192.0, 0.0, 0.0, 0.0, 0.0, 0.0, 0.0, 0.0, 0.0, 0.0, 1.677706380401647E9, 0.0, 2023-03-01 13:33:00.401
93.0, 28436.9621797755, 15977.16104712022, 0.0, -187500.02235174447, 0.0, 0.0, 0.0, -187500.02235174447, -0.274, 0.294, -0.916, 192.0, 0.0, 0.0, 0.0, 0.0, 0.0, 0.0, 0.0, 0.0, 0.0, 1.677706380401673E9, 0.0, 2023-03-01 13:33:00.401
94.0, 28467.02527606789, 16033.50979489205, 0.0, -187500.02235174447, 0.0, 0.0, 0.0, -187500.02235174447, -0.274, 0.294, -0.916, 192.0, 0.0, 0.0, 0.0, 0.0, 0.0, 0.0, 0.0, 0.0, 0.0, 1.677706380408967E9, 0.0, 2023-03-01 13:33:00.408
95.0, 28468.522842946393, 16027.966562267133, 0.0, -187500.02235174447, 0.0, 0.0, 0.0, -187500.02235174447, -0.274, 0.294, -0.916, 192.0, 0.0, 0.0, 0.0, 0.0, 0.0, 0.0, 0.0, 0.0, 0.0, 1.677706380408986E9, 0.0, 2023-03-01 13:33:00.408
96.0, 28433.52001112938, 15960.240776567553, 0.0, -187500.02235174447, 0.0, 0.0, 0.0, -187500.02235174447, -0.278, 0.296, -0.92, 192.0, 247.0, 80.0, 9.0, 64.0, 227.0, 64.0, 0.0, 0.0, 0.0, 1.677706380416252E9, 0.0, 2023-03-01 13:33:00.416
97.0, 28402.831065992246, 15931.071750053377, 0.0, -187500.02235174447, 0.0, 0.0, 0.0, -187500.02235174447, -0.278, 0.296, -0.92, 192.0, 0.0, 0.0, 0.0, 0.0, 0.0, 0.0, 0.0, 0.0, 0.0, 1.677706380416292E9, 0.0, 2023-03-01 13:33:00.416
98.0, 28408.083725939243, 15967.058058626422, 0.0, -187500.02235174447, 0.0, 0.0, 0.0, -187500.02235174447, -0.278, 0.296, -0.92, 192.0, 0.0, 0.0, 0.0, 0.0, 0.0, 0.0, 0.0, 0.0, 0.0, 1.677706380424415E9, 0.0, 2023-03-01 13:33:00.424
99.0, 28402.89812122561, 15965.87341617029, 0.0, -187500.02235174447, 0.0, 0.0, 0.0, -187500.02235174447, -0.278, 0.296, -0.92, 192.0, 0.0, 0.0, 0.0, 0.0, 0.0, 0.0, 0.0, 0.0, 0.0, 1.677706380424426E9, 0.0, 2023-03-01 13:33:00.424
100.0, 28359.55808872677, 15899.108755482288, 0.0, -187500.02235174447, 0.0, 0.0, 0.0, -187500.02235174447, -0.278, 0.296, -0.92, 192.0, 0.0, 0.0, 0.0, 0.0, 0.0, 0.0, 0.0, 0.0, 0.0, 1.677706380431379E9, 0.0, 2023-03-01 13:33:00.431
101.0, 28318.073251017722, 15852.460664804063, 0.0, -187500.02235174447, 0.0, 0.0, 0.0, -187500.02235174447, -0.278, 0.296, -0.92, 192.0, 0.0, 0.0, 0.0, 0.0, 0.0, 0.0, 0.0, 0.0, 0.0, 1.677706380438511E9, 0.0, 2023-03-01 13:33:00.438
102.0, 28325.203457498963, 15885.027156475444, 0.0, -187500.02235174447, 0.0, 0.0, 0.0, -187500.02235174447, -0.278, 0.296, -0.92, 192.0, 0.0, 0.0, 0.0, 0.0, 0.0, 0.0, 0.0, 0.0, 0.0, 1.677706380438536E9, 0.0, 2023-03-01 13:33:00.438
103.0, 28340.357940239664, 15904.29436019592, 0.0, -187500.02235174447, 0.0, 0.0, 0.0, -187500.02235174447, -0.278, 0.296, -0.92, 192.0, 0.0, 0.0, 0.0, 0.0, 0.0, 0.0, 0.0, 0.0, 0.0, 1.677706380445904E9, 0.0, 2023-03-01 13:33:00.445
104.0, 28304.349279922164, 15853.287679348909, 0.0, -187500.02235174447, 0.0, 0.0, 0.0, -187500.02235174447, -0.278, 0.296, -0.92, 192.0, 0.0, 0.0, 0.0, 0.0, 0.0, 0.0, 0.0, 0.0, 0.0, 1.677706380445921E9, 0.0, 2023-03-01 13:33:00.445
105.0, 28269.592317294162, 15801.588094423783, 0.0, -187500.02235174447, 0.0, 0.0, 0.0, -187500.02235174447, -0.278, 0.296, -0.92, 192.0, 0.0, 0.0, 0.0, 0.0, 0.0, 0.0, 0.0, 0.0, 0.0, 1.677706380455352E9, 0.0, 2023-03-01 13:33:00.455
106.0, 28284.724448290403, 15837.954382652568, 0.0, -187500.02235174447, 0.0, 0.0, 0.0, -187500.02235174447, -0.28, 0.292, -0.92, 192.0, 247.0, 64.0, 9.0, 32.0, 227.0, 64.0, 0.0, 0.0, 0.0, 1.677706380455367E9, 0.0, 2023-03-01 13:33:00.455
107.0, 28310.674823603014, 15878.209874416576, 0.0, -187500.02235174447, 0.0, 0.0, 0.0, -187500.02235174447, -0.28, 0.292, -0.92, 192.0, 0.0, 0.0, 0.0, 0.0, 0.0, 0.0, 0.0, 0.0, 0.0, 1.677706380462003E9, 0.0, 2023-03-01 13:33:00.462
108.0, 28300.594186853672, 15849.42082755814, 0.0, -187500.02235174447, 0.0, 0.0, 0.0, -187500.02235174447, -0.28, 0.292, -0.92, 192.0, 0.0, 0.0, 0.0, 0.0, 0.0, 0.0, 0.0, 0.0, 0.0, 1.677706380462016E9, 0.0, 2023-03-01 13:33:00.462
109.0, 28273.079189429187, 15808.22656252701, 0.0, -187500.02235174447, 0.0, 0.0, 0.0, -187500.02235174447, -0.28, 0.292, -0.92, 192.0, 0.0, 0.0, 0.0, 0.0, 0.0, 0.0, 0.0, 0.0, 0.0, 1.67770638046861E9, 0.0, 2023-03-01 13:33:00.468
110.0, 28269.994648694355, 15826.130309835711, 0.0, -187500.02235174447, 0.0, 0.0, 0.0, -187500.02235174447, -0.28, 0.292, -0.92, 192.0, 0.0, 0.0, 0.0, 0.0, 0.0, 0.0, 0.0, 0.0, 0.0, 1.677706380468619E9, 0.0, 2023-03-01 13:33:00.468
111.0, 28300.527131620307, 15868.41981034515, 0.0, -187500.02235174447, 0.0, 0.0, 0.0, -187500.02235174447, -0.28, 0.292, -0.92, 192.0, 0.0, 0.0, 0.0, 0.0, 0.0, 0.0, 0.0, 0.0, 0.0, 1.677706380476597E9, 0.0, 2023-03-01 13:33:00.476
112.0, 28313.044108515278, 15840.748350709482, 0.0, -187500.02235174447, 0.0, 0.0, 0.0, -187500.02235174447, -0.28, 0.292, -0.92, 192.0, 0.0, 0.0, 0.0, 0.0, 0.0, 0.0, 0.0, 0.0, 0.0, 1.677706380476613E9, 0.0, 2023-03-01 13:33:00.476
113.0, 28282.757494778336, 15798.056518799845, 0.0, -187500.02235174447, 0.0, 0.0, 0.0, -187500.02235174447, -0.28, 0.292, -0.92, 192.0, 0.0, 0.0, 0.0, 0.0, 0.0, 0.0, 0.0, 0.0, 0.0, 1.677706380484609E9, 0.0, 2023-03-01 13:33:00.484
114.0, 28270.844014983657, 15811.333455006297, 0.0, -187500.02235174447, 0.0, 0.0, 0.0, -187500.02235174447, -0.28, 0.292, -0.92, 192.0, 0.0, 0.0, 0.0, 0.0, 0.0, 0.0, 0.0, 0.0, 0.0, 1.677706380484737E9, 0.0, 2023-03-01 13:33:00.484
115.0, 28311.859466059148, 15870.789095257414, 0.0, -187500.02235174447, 0.0, 0.0, 0.0, -187500.02235174447, -0.28, 0.292, -0.92, 192.0, 0.0, 0.0, 0.0, 0.0, 0.0, 0.0, 0.0, 0.0, 0.0, 1.67770638049175E9, 0.0, 2023-03-01 13:33:00.491
116.0, 28322.92357956452, 15871.102019679789, 0.0, -187500.02235174447, 0.0, 0.0, 0.0, -187500.02235174447, -0.274, 0.28600000000000003, -0.92, 192.0, 247.0, 112.0, 8.0, 240.0, 227.0, 64.0, 0.0, 0.0, 0.0, 1.677706380491775E9, 0.0, 2023-03-01 13:33:00.491
117.0, 28292.480503616396, 15826.912620891646, 0.0, -187500.02235174447, 0.0, 0.0, 0.0, -187500.02235174447, -0.274, 0.28600000000000003, -0.92, 192.0, 0.0, 0.0, 0.0, 0.0, 0.0, 0.0, 0.0, 0.0, 0.0, 1.677706380498238E9, 0.0, 2023-03-01 13:33:00.498
118.0, 28294.916843762025, 15835.652152973671, 0.0, -187500.02235174447, 0.0, 0.0, 0.0, -187500.02235174447, -0.274, 0.28600000000000003, -0.92, 192.0, 0.0, 0.0, 0.0, 0.0, 0.0, 0.0, 0.0, 0.0, 0.0, 1.67770638050627E9, 0.0, 2023-03-01 13:33:00.506
119.0, 28338.56980068324, 15899.555790371394, 0.0, -187500.02235174447, 0.0, 0.0, 0.0, -187500.02235174447, -0.274, 0.28600000000000003, -0.92, 192.0, 0.0, 0.0, 0.0, 0.0, 0.0, 0.0, 0.0, 0.0, 0.0, 1.677706380506282E9, 0.0, 2023-03-01 13:33:00.506
120.0, 28361.837966661213, 15922.443976693628, 0.0, -187500.02235174447, 0.0, 0.0, 0.0, -187500.02235174447, -0.274, 0.28600000000000003, -0.92, 192.0, 0.0, 0.0, 0.0, 0.0, 0.0, 0.0, 0.0, 0.0, 0.0, 1.677706380514255E9, 0.0, 2023-03-01 13:33:00.514
121.0, 28353.61252470166, 15894.660758335682, 0.0, -187500.02235174447, 0.0, 0.0, 0.0, -187500.02235174447, -0.274, 0.28600000000000003, -0.92, 192.0, 0.0, 0.0, 0.0, 0.0, 0.0, 0.0, 0.0, 0.0, 0.0, 1.677706380514266E9, 0.0, 2023-03-01 13:33:00.514
122.0, 28354.059559590765, 15864.999993443489, 0.0, -187500.02235174447, 0.0, 0.0, 0.0, -187500.02235174447, -0.274, 0.28600000000000003, -0.92, 192.0, 0.0, 0.0, 0.0, 0.0, 0.0, 0.0, 0.0, 0.0, 0.0, 1.67770638052128E9, 0.0, 2023-03-01 13:33:00.521
123.0, 28383.787379716323, 15916.766633601981, 0.0, -187500.02235174447, 0.0, 0.0, 0.0, -187500.02235174447, -0.274, 0.28600000000000003, -0.92, 192.0, 0.0, 0.0, 0.0, 0.0, 0.0, 0.0, 0.0, 0.0, 0.0, 1.677706380521296E9, 0.0, 2023-03-01 13:33:00.521
124.0, 28389.889405952625, 15945.421569993685, 0.0, -187500.02235174447, 0.0, 0.0, 0.0, -187500.02235174447, -0.274, 0.28600000000000003, -0.92, 192.0, 0.0, 0.0, 0.0, 0.0, 0.0, 0.0, 0.0, 0.0, 0.0, 1.677706380528863E9, 0.0, 2023-03-01 13:33:00.528
125.0, 28373.393818544606, 15904.026139262456, 0.0, -187500.02235174447, 0.0, 0.0, 0.0, -187500.02235174447, -0.274, 0.28600000000000003, -0.92, 192.0, 0.0, 0.0, 0.0, 0.0, 0.0, 0.0, 0.0, 0.0, 0.0, 1.677706380528877E9, 0.0, 2023-03-01 13:33:00.528
126.0, 28353.32195202374, 15883.19431343011, 0.0, -187500.02235174447, 0.0, 0.0, 0.0, -187500.02235174447, -0.274, 0.28600000000000003, -0.92, 192.0, 0.0, 0.0, 0.0, 0.0, 0.0, 0.0, 0.0, 0.0, 0.0, 1.677706380536954E9, 0.0, 2023-03-01 13:33:00.536
127.0, 28387.453065806996, 15941.219442036087, 0.0, -187500.02235174447, 0.0, 0.0, 0.0, -187500.02235174447, -0.27, 0.29, -0.922, 192.0, 247.0, 144.0, 9.0, 16.0, 227.0, 48.0, 0.0, 0.0, 0.0, 1.677706380536968E9, 0.0, 2023-03-01 13:33:00.536
128.0, 28424.556961602804, 15983.553646034437, 0.0, -187500.02235174447, 0.0, 0.0, 0.0, -187500.02235174447, -0.27, 0.29, -0.922, 192.0, 0.0, 0.0, 0.0, 0.0, 0.0, 0.0, 0.0, 0.0, 0.0, 1.677706380545441E9, 0.0, 2023-03-01 13:33:00.545
129.0, 28406.608510805192, 15947.96966886159, 0.0, -187500.02235174447, 0.0, 0.0, 0.0, -187500.02235174447, -0.27, 0.29, -0.922, 192.0, 0.0, 0.0, 0.0, 0.0, 0.0, 0.0, 0.0, 0.0, 0.0, 1.677706380545452E9, 0.0, 2023-03-01 13:33:00.545
130.0, 28386.447237306507, 15918.331255713852, 0.0, -187500.02235174447, 0.0, 0.0, 0.0, -187500.02235174447, -0.27, 0.29, -0.922, 192.0, 0.0, 0.0, 0.0, 0.0, 0.0, 0.0, 0.0, 0.0, 0.0, 1.67770638055157E9, 0.0, 2023-03-01 13:33:00.551
131.0, 28412.442316108027, 15969.717916216603, 0.0, -187500.02235174447, 0.0, 0.0, 0.0, -187500.02235174447, -0.27, 0.29, -0.922, 192.0, 0.0, 0.0, 0.0, 0.0, 0.0, 0.0, 0.0, 0.0, 0.0, 1.677706380551582E9, 0.0, 2023-03-01 13:33:00.551
132.0, 28458.755130619425, 16019.539954607482, 0.0, -187500.02235174447, 0.0, 0.0, 0.0, -187500.02235174447, -0.27, 0.29, -0.922, 192.0, 0.0, 0.0, 0.0, 0.0, 0.0, 0.0, 0.0, 0.0, 0.0, 1.677706380558534E9, 0.0, 2023-03-01 13:33:00.558
133.0, 28449.903839815124, 15987.554608291937, 0.0, -187500.02235174447, 0.0, 0.0, 0.0, -187500.02235174447, -0.27, 0.29, -0.922, 192.0, 0.0, 0.0, 0.0, 0.0, 0.0, 0.0, 0.0, 0.0, 0.0, 1.677706380566483E9, 0.0, 2023-03-01 13:33:00.566
134.0, 28414.073993453265, 15930.714122142092, 0.0, -187500.02235174447, 0.0, 0.0, 0.0, -187500.02235174447, -0.27, 0.29, -0.922, 192.0, 0.0, 0.0, 0.0, 0.0, 0.0, 0.0, 0.0, 0.0, 0.0, 1.677706380566503E9, 0.0, 2023-03-01 13:33:00.566
135.0, 28409.558941073294, 15949.48958748455, 0.0, -187500.02235174447, 0.0, 0.0, 0.0, -187500.02235174447, -0.27, 0.29, -0.922, 192.0, 0.0, 0.0, 0.0, 0.0, 0.0, 0.0, 0.0, 0.0, 0.0, 1.67770638057458E9, 0.0, 2023-03-01 13:33:00.574
136.0, 28433.497659384928, 15998.439907841672, 0.0, -187500.02235174447, 0.0, 0.0, 0.0, -187500.02235174447, -0.27, 0.29, -0.922, 192.0, 0.0, 0.0, 0.0, 0.0, 0.0, 0.0, 0.0, 0.0, 0.0, 1.677706380574598E9, 0.0, 2023-03-01 13:33:00.574
137.0, 28434.838764052245, 15977.563378520415, 0.0, -187500.02235174447, 0.0, 0.0, 0.0, -187500.02235174447, -0.27, 0.294, -0.928, 192.0, 247.0, 144.0, 9.0, 48.0, 227.0, 0.0, 0.0, 0.0, 0.0, 1.677706380581143E9, 0.0, 2023-03-01 13:33:00.581
138.0, 28397.064315922777, 15914.442052178629, 0.0, -187500.02235174447, 0.0, 0.0, 0.0, -187500.02235174447, -0.27, 0.294, -0.928, 192.0, 0.0, 0.0, 0.0, 0.0, 0.0, 0.0, 0.0, 0.0, 0.0, 1.677706380581162E9, 0.0, 2023-03-01 13:33:00.581
139.0, 28393.84566472121, 15927.137843029243, 0.0, -187500.02235174447, 0.0, 0.0, 0.0, -187500.02235174447, -0.27, 0.294, -0.928, 192.0, 0.0, 0.0, 0.0, 0.0, 0.0, 0.0, 0.0, 0.0, 0.0, 1.677706380589657E9, 0.0, 2023-03-01 13:33:00.589
140.0, 28425.76395580339, 15998.708128775137, 0.0, -187500.02235174447, 0.0, 0.0, 0.0, -187500.02235174447, -0.27, 0.294, -0.928, 192.0, 0.0, 0.0, 0.0, 0.0, 0.0, 0.0, 0.0, 0.0, 0.0, 1.677706380589671E9, 0.0, 2023-03-01 13:33:00.589
141.0, 28435.35285417472, 16002.753794521546, 0.0, -187500.02235174447, 0.0, 0.0, 0.0, -187500.02235174447, -0.27, 0.294, -0.928, 192.0, 0.0, 0.0, 0.0, 0.0, 0.0, 0.0, 0.0, 0.0, 0.0, 1.677706380597244E9, 0.0, 2023-03-01 13:33:00.597
142.0, 28414.655138809103, 15957.647974210737, 0.0, -187500.02235174447, 0.0, 0.0, 0.0, -187500.02235174447, -0.27, 0.294, -0.928, 192.0, 0.0, 0.0, 0.0, 0.0, 0.0, 0.0, 0.0, 0.0, 0.0, 1.677706380597252E9, 0.0, 2023-03-01 13:33:00.597
143.0, 28418.745508044423, 15961.425419023684, 0.0, -187500.02235174447, 0.0, 0.0, 0.0, -187500.02235174447, -0.27, 0.294, -0.928, 192.0, 0.0, 0.0, 0.0, 0.0, 0.0, 0.0, 0.0, 0.0, 0.0, 1.677706380603877E9, 0.0, 2023-03-01 13:33:00.603
144.0, 28472.72497090399, 16031.8334140579, 0.0, -187500.02235174447, 0.0, 0.0, 0.0, -187500.02235174447, -0.27, 0.294, -0.928, 192.0, 0.0, 0.0, 0.0, 0.0, 0.0, 0.0, 0.0, 0.0, 0.0, 1.677706380603894E9, 0.0, 2023-03-01 13:33:00.603
145.0, 28481.464502986015, 16047.725504365624, 0.0, -187500.02235174447, 0.0, 0.0, 0.0, -187500.02235174447, -0.27, 0.294, -0.928, 192.0, 0.0, 0.0, 0.0, 0.0, 0.0, 0.0, 0.0, 0.0, 0.0, 1.677706380611893E9, 0.0, 2023-03-01 13:33:00.611
146.0, 28441.72310134448, 15983.754811734536, 0.0, -187500.02235174447, 0.0, 0.0, 0.0, -187500.02235174447, -0.27, 0.294, -0.928, 192.0, 0.0, 0.0, 0.0, 0.0, 0.0, 0.0, 0.0, 0.0, 0.0, 1.677706380611955E9, 0.0, 2023-03-01 13:33:00.611
147.0, 28433.11767972919, 15959.68198295617, 0.0, -187500.02235174447, 0.0, 0.0, 0.0, -187500.02235174447, -0.27, 0.292, -0.928, 192.0, 247.0, 144.0, 9.0, 32.0, 227.0, 0.0, 0.0, 0.0, 0.0, 1.677706380618847E9, 0.0, 2023-03-01 13:33:00.618
148.0, 28474.222537782498, 16024.256172687552, 0.0, -187500.02235174447, 0.0, 0.0, 0.0, -187500.02235174447, -0.27, 0.292, -0.928, 192.0, 0.0, 0.0, 0.0, 0.0, 0.0, 0.0, 0.0, 0.0, 0.0, 1.677706380626785E9, 0.0, 2023-03-01 13:33:00.626
149.0, 28504.978538153, 16059.437818460205, 0.0, -187500.02235174447, 0.0, 0.0, 0.0, -187500.02235174447, -0.27, 0.292, -0.928, 192.0, 0.0, 0.0, 0.0, 0.0, 0.0, 0.0, 0.0, 0.0, 0.0, 1.677706380626796E9, 0.0, 2023-03-01 13:33:00.626
150.0, 28490.44990425705, 16017.371835395317, 0.0, -187500.02235174447, 0.0, 0.0, 0.0, -187500.02235174447, -0.27, 0.292, -0.928, 192.0, 0.0, 0.0, 0.0, 0.0, 0.0, 0.0, 0.0, 0.0, 0.0, 1.677706380633386E9, 0.0, 2023-03-01 13:33:00.633
151.0, 28471.562680192314, 15981.698451244647, 0.0, -187500.02235174447, 0.0, 0.0, 0.0, -187500.02235174447, -0.27, 0.292, -0.928, 192.0, 0.0, 0.0, 0.0, 0.0, 0.0, 0.0, 0.0, 0.0, 0.0, 1.677706380633398E9, 0.0, 2023-03-01 13:33:00.633
152.0, 28494.048535114354, 16034.582678625904, 0.0, -187500.02235174447, 0.0, 0.0, 0.0, -187500.02235174447, -0.27, 0.292, -0.928, 192.0, 0.0, 0.0, 0.0, 0.0, 0.0, 0.0, 0.0, 0.0, 0.0, 1.677706380641576E9, 0.0, 2023-03-01 13:33:00.641
153.0, 28503.659785230135, 16076.46984773515, 0.0, -187500.02235174447, 0.0, 0.0, 0.0, -187500.02235174447, -0.27, 0.292, -0.928, 192.0, 0.0, 0.0, 0.0, 0.0, 0.0, 0.0, 0.0, 0.0, 0.0, 1.677706380641586E9, 0.0, 2023-03-01 13:33:00.641
154.0, 28481.755075663936, 16034.090940247886, 0.0, -187500.02235174447, 0.0, 0.0, 0.0, -187500.02235174447, -0.27, 0.292, -0.928, 192.0, 0.0, 0.0, 0.0, 0.0, 0.0, 0.0, 0.0, 0.0, 0.0, 1.677706380650086E9, 0.0, 2023-03-01 13:33:00.650
155.0, 28458.419854452593, 15999.937474720178, 0.0, -187500.02235174447, 0.0, 0.0, 0.0, -187500.02235174447, -0.27, 0.292, -0.928, 192.0, 0.0, 0.0, 0.0, 0.0, 0.0, 0.0, 0.0, 0.0, 0.0, 1.677706380650108E9, 0.0, 2023-03-01 13:33:00.650
156.0, 28480.83865414127, 16040.908222306756, 0.0, -187500.02235174447, 0.0, 0.0, 0.0, -187500.02235174447, -0.27, 0.292, -0.928, 192.0, 0.0, 0.0, 0.0, 0.0, 0.0, 0.0, 0.0, 0.0, 0.0, 1.677706380656526E9, 0.0, 2023-03-01 13:33:00.656
157.0, 28512.533427778893, 16091.154943842286, 0.0, -187500.02235174447, 0.0, 0.0, 0.0, -187500.02235174447, -0.27, 0.29, -0.926, 192.0, 247.0, 144.0, 9.0, 16.0, 227.0, 16.0, 0.0, 0.0, 0.0, 1.67770638065654E9, 0.0, 2023-03-01 13:33:00.656
158.0, 28499.412953783627, 16057.739085881602, 0.0, -187500.02235174447, 0.0, 0.0, 0.0, -187500.02235174447, -0.27, 0.29, -0.926, 192.0, 0.0, 0.0, 0.0, 0.0, 0.0, 0.0, 0.0, 0.0, 0.0, 1.677706380664167E9, 0.0, 2023-03-01 13:33:00.664
159.0, 28471.003886580933, 15995.601236295848, 0.0, -187500.02235174447, 0.0, 0.0, 0.0, -187500.02235174447, -0.27, 0.29, -0.926, 192.0, 0.0, 0.0, 0.0, 0.0, 0.0, 0.0, 0.0, 0.0, 0.0, 1.677706380664183E9, 0.0, 2023-03-01 13:33:00.664
160.0, 28483.476159986993, 16013.706149304648, 0.0, -187500.02235174447, 0.0, 0.0, 0.0, -187500.02235174447, -0.27, 0.29, -0.926, 192.0, 0.0, 0.0, 0.0, 0.0, 0.0, 0.0, 0.0, 0.0, 0.0, 1.677706380672099E9, 0.0, 2023-03-01 13:33:00.672
161.0, 28514.29921559086, 16078.883836136323, 0.0, -187500.02235174447, 0.0, 0.0, 0.0, -187500.02235174447, -0.27, 0.29, -0.926, 192.0, 0.0, 0.0, 0.0, 0.0, 0.0, 0.0, 0.0, 0.0, 0.0, 1.67770638067211E9, 0.0, 2023-03-01 13:33:00.672
162.0, 28522.815230228334, 16067.775019142035, 0.0, -187500.02235174447, 0.0, 0.0, 0.0, -187500.02235174447, -0.27, 0.29, -0.926, 192.0, 0.0, 0.0, 0.0, 0.0, 0.0, 0.0, 0.0, 0.0, 0.0, 1.677706380679132E9, 0.0, 2023-03-01 13:33:00.679
163.0, 28505.26911083092, 16008.386434124284, 0.0, -187500.02235174447, 0.0, 0.0, 0.0, -187500.02235174447, -0.27, 0.29, -0.926, 192.0, 0.0, 0.0, 0.0, 0.0, 0.0, 0.0, 0.0, 0.0, 0.0, 1.677706380686213E9, 0.0, 2023-03-01 13:33:00.686
164.0, 28481.77742740839, 16008.855820757846, 0.0, -187500.02235174447, 0.0, 0.0, 0.0, -187500.02235174447, -0.27, 0.29, -0.926, 192.0, 0.0, 0.0, 0.0, 0.0, 0.0, 0.0, 0.0, 0.0, 0.0, 1.677706380686223E9, 0.0, 2023-03-01 13:33:00.686
165.0, 28499.390602039173, 16059.79544637149, 0.0, -187500.02235174447, 0.0, 0.0, 0.0, -187500.02235174447, -0.27, 0.29, -0.926, 192.0, 0.0, 0.0, 0.0, 0.0, 0.0, 0.0, 0.0, 0.0, 0.0, 1.677706380693721E9, 0.0, 2023-03-01 13:33:00.693
166.0, 28504.30798581934, 16045.490329920094, 0.0, -187500.02235174447, 0.0, 0.0, 0.0, -187500.02235174447, -0.27, 0.29, -0.926, 192.0, 0.0, 0.0, 0.0, 0.0, 0.0, 0.0, 0.0, 0.0, 0.0, 1.677706380693737E9, 0.0, 2023-03-01 13:33:00.693
167.0, 28473.01554358191, 15990.080355415388, 0.0, -187500.02235174447, 0.0, 0.0, 0.0, -187500.02235174447, -0.272, 0.28600000000000003, -0.93, 192.0, 247.0, 128.0, 8.0, 240.0, 226.0, 240.0, 0.0, 0.0, 0.0, 1.677706380701803E9, 0.0, 2023-03-01 13:33:00.701
168.0, 28468.20991852402, 15995.98121595159, 0.0, -187500.02235174447, 0.0, 0.0, 0.0, -187500.02235174447, -0.272, 0.28600000000000003, -0.93, 192.0, 0.0, 0.0, 0.0, 0.0, 0.0, 0.0, 0.0, 0.0, 0.0, 1.67770638070182E9, 0.0, 2023-03-01 13:33:00.701
169.0, 28497.557758993837, 16058.007306815065, 0.0, -187500.02235174447, 0.0, 0.0, 0.0, -187500.02235174447, -0.272, 0.28600000000000003, -0.93, 192.0, 0.0, 0.0, 0.0, 0.0, 0.0, 0.0, 0.0, 0.0, 0.0, 1.677706380709827E9, 0.0, 2023-03-01 13:33:00.709
170.0, 28510.298253333363, 16068.691440664703, 0.0, -187500.02235174447, 0.0, 0.0, 0.0, -187500.02235174447, -0.272, 0.28600000000000003, -0.93, 192.0, 0.0, 0.0, 0.0, 0.0, 0.0, 0.0, 0.0, 0.0, 0.0, 1.677706380709842E9, 0.0, 2023-03-01 13:33:00.709
171.0, 28483.386753009174, 16010.755719036546, 0.0, -187500.02235174447, 0.0, 0.0, 0.0, -187500.02235174447, -0.272, 0.28600000000000003, -0.93, 192.0, 0.0, 0.0, 0.0, 0.0, 0.0, 0.0, 0.0, 0.0, 0.0, 1.677706380716472E9, 0.0, 2023-03-01 13:33:00.716
172.0, 28465.77357837839, 15983.441887312161, 0.0, -187500.02235174447, 0.0, 0.0, 0.0, -187500.02235174447, -0.272, 0.28600000000000003, -0.93, 192.0, 0.0, 0.0, 0.0, 0.0, 0.0, 0.0, 0.0, 0.0, 0.0, 1.677706380716484E9, 0.0, 2023-03-01 13:33:00.716
173.0, 28504.285634074884, 16048.150187510275, 0.0, -187500.02235174447, 0.0, 0.0, 0.0, -187500.02235174447, -0.272, 0.28600000000000003, -0.93, 192.0, 0.0, 0.0, 0.0, 0.0, 0.0, 0.0, 0.0, 0.0, 0.0, 1.677706380724412E9, 0.0, 2023-03-01 13:33:00.724
174.0, 28539.891962992187, 16080.873141392845, 0.0, -187500.02235174447, 0.0, 0.0, 0.0, -187500.02235174447, -0.272, 0.28600000000000003, -0.93, 192.0, 0.0, 0.0, 0.0, 0.0, 0.0, 0.0, 0.0, 0.0, 0.0, 1.677706380724421E9, 0.0, 2023-03-01 13:33:00.724
175.0, 28519.127192393207, 16024.479690132106, 0.0, -187500.02235174447, 0.0, 0.0, 0.0, -187500.02235174447, -0.272, 0.28600000000000003, -0.93, 192.0, 0.0, 0.0, 0.0, 0.0, 0.0, 0.0, 0.0, 0.0, 0.0, 1.677706380732366E9, 0.0, 2023-03-01 13:33:00.732
176.0, 28482.671497186602, 15977.943358176157, 0.0, -187500.02235174447, 0.0, 0.0, 0.0, -187500.02235174447, -0.272, 0.28600000000000003, -0.93, 192.0, 0.0, 0.0, 0.0, 0.0, 0.0, 0.0, 0.0, 0.0, 0.0, 1.677706380732384E9, 0.0, 2023-03-01 13:33:00.732
177.0, 28488.952337378545, 16026.401940155261, 0.0, -187500.02235174447, 0.0, 0.0, 0.0, -187500.02235174447, -0.274, 0.28400000000000003, -0.932, 192.0, 247.0, 112.0, 8.0, 224.0, 226.0, 224.0, 0.0, 0.0, 0.0, 1.677706380739494E9, 0.0, 2023-03-01 13:33:00.739
178.0, 28518.099012148265, 16070.837208132412, 0.0, -187500.02235174447, 0.0, 0.0, 0.0, -187500.02235174447, -0.274, 0.28400000000000003, -0.932, 192.0, 0.0, 0.0, 0.0, 0.0, 0.0, 0.0, 0.0, 0.0, 0.0, 1.677706380739514E9, 0.0, 2023-03-01 13:33:00.739
179.0, 28513.986291168487, 16034.962658281644, 0.0, -187500.02235174447, 0.0, 0.0, 0.0, -187500.02235174447, -0.274, 0.28400000000000003, -0.932, 192.0, 0.0, 0.0, 0.0, 0.0, 0.0, 0.0, 0.0, 0.0, 0.0, 1.677706380746053E9, 0.0, 2023-03-01 13:33:00.746
180.0, 28484.102008831742, 15990.616797282315, 0.0, -187500.02235174447, 0.0, 0.0, 0.0, -187500.02235174447, -0.274, 0.28400000000000003, -0.932, 192.0, 0.0, 0.0, 0.0, 0.0, 0.0, 0.0, 0.0, 0.0, 0.0, 1.677706380753935E9, 0.0, 2023-03-01 13:33:00.753
181.0, 28506.386698053684, 16037.98014378311, 0.0, -187500.02235174447, 0.0, 0.0, 0.0, -187500.02235174447, -0.274, 0.28400000000000003, -0.932, 192.0, 0.0, 0.0, 0.0, 0.0, 0.0, 0.0, 0.0, 0.0, 0.0, 1.677706380753946E9, 0.0, 2023-03-01 13:33:00.753
182.0, 28539.22141065853, 16098.41926079026, 0.0, -187500.02235174447, 0.0, 0.0, 0.0, -187500.02235174447, -0.274, 0.28400000000000003, -0.932, 192.0, 0.0, 0.0, 0.0, 0.0, 0.0, 0.0, 0.0, 0.0, 0.0, 1.67770638076254E9, 0.0, 2023-03-01 13:33:00.762
183.0, 28519.484820304493, 16068.244405775597, 0.0, -187500.02235174447, 0.0, 0.0, 0.0, -187500.02235174447, -0.274, 0.28400000000000003, -0.932, 192.0, 0.0, 0.0, 0.0, 0.0, 0.0, 0.0, 0.0, 0.0, 0.0, 1.677706380762553E9, 0.0, 2023-03-01 13:33:00.762
184.0, 28491.388677524174, 16010.308684147441, 0.0, -187500.02235174447, 0.0, 0.0, 0.0, -187500.02235174447, -0.274, 0.28400000000000003, -0.932, 192.0, 0.0, 0.0, 0.0, 0.0, 0.0, 0.0, 0.0, 0.0, 0.0, 1.67770638076902E9, 0.0, 2023-03-01 13:33:00.769
185.0, 28507.25841608744, 16021.059873230442, 0.0, -187500.02235174447, 0.0, 0.0, 0.0, -187500.02235174447, -0.274, 0.28400000000000003, -0.932, 192.0, 0.0, 0.0, 0.0, 0.0, 0.0, 0.0, 0.0, 0.0, 0.0, 1.677706380769029E9, 0.0, 2023-03-01 13:33:00.769
186.0, 28548.385625885207, 16075.262853534563, 0.0, -187500.02235174447, 0.0, 0.0, 0.0, -187500.02235174447, -0.274, 0.28400000000000003, -0.932, 192.0, 0.0, 0.0, 0.0, 0.0, 0.0, 0.0, 0.0, 0.0, 0.0, 1.677706380776688E9, 0.0, 2023-03-01 13:33:00.776
187.0, 28540.40605311466, 16066.053934818976, 0.0, -187500.02235174447, 0.0, 0.0, 0.0, -187500.02235174447, -0.27, 0.28800000000000003, -0.918, 192.0, 247.0, 144.0, 9.0, 0.0, 227.0, 80.0, 0.0, 0.0, 0.0, 1.677706380776706E9, 0.0, 2023-03-01 13:33:00.776
188.0, 28495.054363614843, 16011.046291714465, 0.0, -187500.02235174447, 0.0, 0.0, 0.0, -187500.02235174447, -0.27, 0.28800000000000003, -0.918, 192.0, 0.0, 0.0, 0.0, 0.0, 0.0, 0.0, 0.0, 0.0, 0.0, 1.677706380784651E9, 0.0, 2023-03-01 13:33:00.784
189.0, 28493.55679673634, 16012.476803359605, 0.0, -187500.02235174447, 0.0, 0.0, 0.0, -187500.02235174447, -0.27, 0.28800000000000003, -0.918, 192.0, 0.0, 0.0, 0.0, 0.0, 0.0, 0.0, 0.0, 0.0, 0.0, 1.677706380784666E9, 0.0, 2023-03-01 13:33:00.784
190.0, 28530.59363729878, 16071.887740121812, 0.0, -187500.02235174447, 0.0, 0.0, 0.0, -187500.02235174447, -0.27, 0.28800000000000003, -0.918, 192.0, 0.0, 0.0, 0.0, 0.0, 0.0, 0.0, 0.0, 0.0, 0.0, 1.677706380791689E9, 0.0, 2023-03-01 13:33:00.791
191.0, 28543.9376287386, 16075.03933609001, 0.0, -187500.02235174447, 0.0, 0.0, 0.0, -187500.02235174447, -0.27, 0.28800000000000003, -0.918, 192.0, 0.0, 0.0, 0.0, 0.0, 0.0, 0.0, 0.0, 0.0, 0.0, 1.677706380791703E9, 0.0, 2023-03-01 13:33:00.791
192.0, 28512.801648712357, 16020.657541830247, 0.0, -187500.02235174447, 0.0, 0.0, 0.0, -187500.02235174447, -0.27, 0.28800000000000003, -0.918, 192.0, 0.0, 0.0, 0.0, 0.0, 0.0, 0.0, 0.0, 0.0, 0.0, 1.677706380799343E9, 0.0, 2023-03-01 13:33:00.799
193.0, 28500.083506117287, 16016.902448761755, 0.0, -187500.02235174447, 0.0, 0.0, 0.0, -187500.02235174447, -0.27, 0.28800000000000003, -0.918, 192.0, 0.0, 0.0, 0.0, 0.0, 0.0, 0.0, 0.0, 0.0, 0.0, 1.677706380799354E9, 0.0, 2023-03-01 13:33:00.799
194.0, 28531.957093710556, 16071.865388377357, 0.0, -187500.02235174447, 0.0, 0.0, 0.0, -187500.02235174447, -0.27, 0.28800000000000003, -0.918, 192.0, 0.0, 0.0, 0.0, 0.0, 0.0, 0.0, 0.0, 0.0, 0.0, 1.677706380806263E9, 0.0, 2023-03-01 13:33:00.806
195.0, 28548.22916367402, 16084.605882716882, 0.0, -187500.02235174447, 0.0, 0.0, 0.0, -187500.02235174447, -0.27, 0.28800000000000003, -0.918, 192.0, 0.0, 0.0, 0.0, 0.0, 0.0, 0.0, 0.0, 0.0, 0.0, 1.677706380814273E9, 0.0, 2023-03-01 13:33:00.814
196.0, 28518.680157504103, 16026.536050621993, 0.0, -187500.02235174447, 0.0, 0.0, 0.0, -187500.02235174447, -0.27, 0.28800000000000003, -0.918, 192.0, 0.0, 0.0, 0.0, 0.0, 0.0, 0.0, 0.0, 0.0, 0.0, 1.677706380814289E9, 0.0, 2023-03-01 13:33:00.814
197.0, 28491.67925020209, 15993.187247894675, 0.0, -187500.02235174447, 0.0, 0.0, 0.0, -187500.02235174447, -0.266, 0.29, -0.914, 192.0, 247.0, 176.0, 9.0, 16.0, 227.0, 112.0, 0.0, 0.0, 0.0, 1.677706380821419E9, 0.0, 2023-03-01 13:33:00.821
198.0, 28516.31087259184, 16044.663315375248, 0.0, -187500.02235174447, 0.0, 0.0, 0.0, -187500.02235174447, -0.266, 0.29, -0.914, 192.0, 0.0, 0.0, 0.0, 0.0, 0.0, 0.0, 0.0, 0.0, 0.0, 1.677706380821435E9, 0.0, 2023-03-01 13:33:00.821
199.0, 28547.35744564026, 16084.158847827775, 0.0, -187500.02235174447, 0.0, 0.0, 0.0, -187500.02235174447, -0.266, 0.29, -0.914, 192.0, 0.0, 0.0, 0.0, 0.0, 0.0, 0.0, 0.0, 0.0, 0.0, 1.677706380828881E9, 0.0, 2023-03-01 13:33:00.828
200.0, 28529.341939609283, 16042.159919996253, 0.0, -187500.02235174447, 0.0, 0.0, 0.0, -187500.02235174447, -0.266, 0.29, -0.914, 192.0, 0.0, 0.0, 0.0, 0.0, 0.0, 0.0, 0.0, 0.0, 0.0, 1.677706380828897E9, 0.0, 2023-03-01 13:33:00.828
201.0, 28494.137942092177, 16006.955922479145, 0.0, -187500.02235174447, 0.0, 0.0, 0.0, -187500.02235174447, -0.266, 0.29, -0.914, 192.0, 0.0, 0.0, 0.0, 0.0, 0.0, 0.0, 0.0, 0.0, 0.0, 1.677706380836923E9, 0.0, 2023-03-01 13:33:00.836
202.0, 28507.012546898433, 16046.987896798599, 0.0, -187500.02235174447, 0.0, 0.0, 0.0, -187500.02235174447, -0.266, 0.29, -0.914, 192.0, 0.0, 0.0, 0.0, 0.0, 0.0, 0.0, 0.0, 0.0, 0.0, 1.677706380836933E9, 0.0, 2023-03-01 13:33:00.836
203.0, 28535.175744912118, 16088.56214148547, 0.0, -187500.02235174447, 0.0, 0.0, 0.0, -187500.02235174447, -0.266, 0.29, -0.914, 192.0, 0.0, 0.0, 0.0, 0.0, 0.0, 0.0, 0.0, 0.0, 0.0, 1.677706380845013E9, 0.0, 2023-03-01 13:33:00.845
204.0, 28522.79287848388, 16043.389265941296, 0.0, -187500.02235174447, 0.0, 0.0, 0.0, -187500.02235174447, -0.266, 0.29, -0.914, 192.0, 0.0, 0.0, 0.0, 0.0, 0.0, 0.0, 0.0, 0.0, 0.0, 1.677706380845027E9, 0.0, 2023-03-01 13:33:00.845
205.0, 28502.229273584995, 15988.44867807015, 0.0, -187500.02235174447, 0.0, 0.0, 0.0, -187500.02235174447, -0.266, 0.29, -0.914, 192.0, 0.0, 0.0, 0.0, 0.0, 0.0, 0.0, 0.0, 0.0, 0.0, 1.677706380851523E9, 0.0, 2023-03-01 13:33:00.851
206.0, 28510.11943937772, 16018.779995296001, 0.0, -187500.02235174447, 0.0, 0.0, 0.0, -187500.02235174447, -0.266, 0.29, -0.914, 192.0, 0.0, 0.0, 0.0, 0.0, 0.0, 0.0, 0.0, 0.0, 0.0, 1.677706380851531E9, 0.0, 2023-03-01 13:33:00.851
207.0, 28549.07852996332, 16078.839132647412, 0.0, -187500.02235174447, 0.0, 0.0, 0.0, -187500.02235174447, -0.266, 0.29, -0.914, 192.0, 0.0, 0.0, 0.0, 0.0, 0.0, 0.0, 0.0, 0.0, 0.0, 1.677706380859677E9, 0.0, 2023-03-01 13:33:00.859
208.0, 28551.179593942117, 16065.293975507497, 0.0, -187500.02235174447, 0.0, 0.0, 0.0, -187500.02235174447, -0.268, 0.29, -0.908, 192.0, 247.0, 160.0, 9.0, 16.0, 227.0, 160.0, 0.0, 0.0, 0.0, 1.677706380859695E9, 0.0, 2023-03-01 13:33:00.859
209.0, 28528.157297153153, 16023.205640698152, 0.0, -187500.02235174447, 0.0, 0.0, 0.0, -187500.02235174447, -0.268, 0.29, -0.908, 192.0, 0.0, 0.0, 0.0, 0.0, 0.0, 0.0, 0.0, 0.0, 0.0, 1.677706380866672E9, 0.0, 2023-03-01 13:33:00.866
210.0, 28515.819134213823, 16035.767321082036, 0.0, -187500.02235174447, 0.0, 0.0, 0.0, -187500.02235174447, -0.268, 0.29, -0.908, 192.0, 0.0, 0.0, 0.0, 0.0, 0.0, 0.0, 0.0, 0.0, 0.0, 1.677706380874551E9, 0.0, 2023-03-01 13:33:00.874
211.0, 28535.153393167664, 16084.963510628166, 0.0, -187500.02235174447, 0.0, 0.0, 0.0, -187500.02235174447, -0.268, 0.29, -0.908, 192.0, 0.0, 0.0, 0.0, 0.0, 0.0, 0.0, 0.0, 0.0, 0.0, 1.67770638087459E9, 0.0, 2023-03-01 13:33:00.874
212.0, 28540.540163581394, 16077.22980704663, 0.0, -187500.02235174447, 0.0, 0.0, 0.0, -187500.02235174447, -0.268, 0.29, -0.908, 192.0, 0.0, 0.0, 0.0, 0.0, 0.0, 0.0, 0.0, 0.0, 0.0, 1.677706380881245E9, 0.0, 2023-03-01 13:33:00.881
213.0, 28496.574282237805, 16016.12013770582, 0.0, -187500.02235174447, 0.0, 0.0, 0.0, -187500.02235174447, -0.268, 0.29, -0.908, 192.0, 0.0, 0.0, 0.0, 0.0, 0.0, 0.0, 0.0, 0.0, 0.0, 1.677706380881255E9, 0.0, 2023-03-01 13:33:00.881
214.0, 28488.371192022707, 16023.049178486966, 0.0, -187500.02235174447, 0.0, 0.0, 0.0, -187500.02235174447, -0.268, 0.29, -0.908, 192.0, 0.0, 0.0, 0.0, 0.0, 0.0, 0.0, 0.0, 0.0, 0.0, 1.677706380889182E9, 0.0, 2023-03-01 13:33:00.889
215.0, 28528.961959953544, 16081.208417559674, 0.0, -187500.02235174447, 0.0, 0.0, 0.0, -187500.02235174447, -0.268, 0.29, -0.908, 192.0, 0.0, 0.0, 0.0, 0.0, 0.0, 0.0, 0.0, 0.0, 0.0, 1.677706380889193E9, 0.0, 2023-03-01 13:33:00.889
216.0, 28517.495515047973, 16073.56412095596, 0.0, -187500.02235174447, 0.0, 0.0, 0.0, -187500.02235174447, -0.268, 0.29, -0.908, 192.0, 0.0, 0.0, 0.0, 0.0, 0.0, 0.0, 0.0, 0.0, 0.0, 1.677706380897312E9, 0.0, 2023-03-01 13:33:00.897
217.0, 28474.0213720824, 16019.674065074214, 0.0, -187500.02235174447, 0.0, 0.0, 0.0, -187500.02235174447, -0.268, 0.29, -0.908, 192.0, 0.0, 0.0, 0.0, 0.0, 0.0, 0.0, 0.0, 0.0, 0.0, 1.677706380897326E9, 0.0, 2023-03-01 13:33:00.897
218.0, 28446.931057802565, 16004.139602677777, 0.0, -187500.02235174447, 0.0, 0.0, 0.0, -187500.02235174447, -0.272, 0.28800000000000003, -0.91, 192.0, 247.0, 128.0, 9.0, 0.0, 227.0, 144.0, 0.0, 0.0, 0.0, 1.67770638090437E9, 0.0, 2023-03-01 13:33:00.904
219.0, 28480.704543674536, 16068.646737175792, 0.0, -187500.02235174447, 0.0, 0.0, 0.0, -187500.02235174447, -0.272, 0.28800000000000003, -0.91, 192.0, 0.0, 0.0, 0.0, 0.0, 0.0, 0.0, 0.0, 0.0, 0.0, 1.67770638090439E9, 0.0, 2023-03-01 13:33:00.904
220.0, 28510.499419033462, 16098.888647423822, 0.0, -187500.02235174447, 0.0, 0.0, 0.0, -187500.02235174447, -0.272, 0.28800000000000003, -0.91, 192.0, 0.0, 0.0, 0.0, 0.0, 0.0, 0.0, 0.0, 0.0, 0.0, 1.677706380911759E9, 0.0, 2023-03-01 13:33:00.911
221.0, 28474.736627904967, 16047.725504365624, 0.0, -187500.02235174447, 0.0, 0.0, 0.0, -187500.02235174447, -0.272, 0.28800000000000003, -0.91, 192.0, 0.0, 0.0, 0.0, 0.0, 0.0, 0.0, 0.0, 0.0, 0.0, 1.677706380911777E9, 0.0, 2023-03-01 13:33:00.911
222.0, 28436.068109997286, 16008.431137613195, 0.0, -187500.02235174447, 0.0, 0.0, 0.0, -187500.02235174447, -0.272, 0.28800000000000003, -0.91, 192.0, 0.0, 0.0, 0.0, 0.0, 0.0, 0.0, 0.0, 0.0, 0.0, 1.67770638091992E9, 0.0, 2023-03-01 13:33:00.919
223.0, 28463.069017299298, 16054.431027702216, 0.0, -187500.02235174447, 0.0, 0.0, 0.0, -187500.02235174447, -0.272, 0.28800000000000003, -0.91, 192.0, 0.0, 0.0, 0.0, 0.0, 0.0, 0.0, 0.0, 0.0, 0.0, 1.677706380919934E9, 0.0, 2023-03-01 13:33:00.919
224.0, 28491.411029268627, 16092.540751998515, 0.0, -187500.02235174447, 0.0, 0.0, 0.0, -187500.02235174447, -0.272, 0.28800000000000003, -0.91, 192.0, 0.0, 0.0, 0.0, 0.0, 0.0, 0.0, 0.0, 0.0, 0.0, 1.677706380926924E9, 0.0, 2023-03-01 13:33:00.926
225.0, 28478.335258762272, 16054.811007357957, 0.0, -187500.02235174447, 0.0, 0.0, 0.0, -187500.02235174447, -0.272, 0.28800000000000003, -0.91, 192.0, 0.0, 0.0, 0.0, 0.0, 0.0, 0.0, 0.0, 0.0, 0.0, 1.677706380933882E9, 0.0, 2023-03-01 13:33:00.933
226.0, 28456.028217795876, 16010.733367292092, 0.0, -187500.02235174447, 0.0, 0.0, 0.0, -187500.02235174447, -0.272, 0.28800000000000003, -0.91, 192.0, 0.0, 0.0, 0.0, 0.0, 0.0, 0.0, 0.0, 0.0, 0.0, 1.67770638093389E9, 0.0, 2023-03-01 13:33:00.933
227.0, 28475.183662794076, 16048.530167166016, 0.0, -187500.02235174447, 0.0, 0.0, 0.0, -187500.02235174447, -0.272, 0.28800000000000003, -0.91, 192.0, 0.0, 0.0, 0.0, 0.0, 0.0, 0.0, 0.0, 0.0, 0.0, 1.677706380941583E9, 0.0, 2023-03-01 13:33:00.941
228.0, 28497.20013108255, 16089.880894408334, 0.0, -187500.02235174447, 0.0, 0.0, 0.0, -187500.02235174447, -0.264, 0.28600000000000003, -0.914, 192.0, 247.0, 192.0, 8.0, 240.0, 227.0, 112.0, 0.0, 0.0, 0.0, 1.677706380941631E9, 0.0, 2023-03-01 13:33:00.941
229.0, 28485.77838966589, 16053.760475368557, 0.0, -187500.02235174447, 0.0, 0.0, 0.0, -187500.02235174447, -0.264, 0.28600000000000003, -0.914, 192.0, 0.0, 0.0, 0.0, 0.0, 0.0, 0.0, 0.0, 0.0, 0.0, 1.677706380949533E9, 0.0, 2023-03-01 13:33:00.949
230.0, 28441.72310134448, 16001.256227643042, 0.0, -187500.02235174447, 0.0, 0.0, 0.0, -187500.02235174447, -0.264, 0.28600000000000003, -0.914, 192.0, 0.0, 0.0, 0.0, 0.0, 0.0, 0.0, 0.0, 0.0, 0.0, 1.677706380949548E9, 0.0, 2023-03-01 13:33:00.949
231.0, 28446.595781635737, 16034.426216414717, 0.0, -187500.02235174447, 0.0, 0.0, 0.0, -187500.02235174447, -0.264, 0.28600000000000003, -0.914, 192.0, 0.0, 0.0, 0.0, 0.0, 0.0, 0.0, 0.0, 0.0, 0.0, 1.677706380957695E9, 0.0, 2023-03-01 13:33:00.957
232.0, 28481.799779152847, 16083.667109449758, 0.0, -187500.02235174447, 0.0, 0.0, 0.0, -187500.02235174447, -0.264, 0.28600000000000003, -0.914, 192.0, 0.0, 0.0, 0.0, 0.0, 0.0, 0.0, 0.0, 0.0, 0.0, 1.677706380957709E9, 0.0, 2023-03-01 13:33:00.957
233.0, 28474.49075871596, 16057.51556843705, 0.0, -187500.02235174447, 0.0, 0.0, 0.0, -187500.02235174447, -0.264, 0.28600000000000003, -0.914, 192.0, 0.0, 0.0, 0.0, 0.0, 0.0, 0.0, 0.0, 0.0, 0.0, 1.677706380964187E9, 0.0, 2023-03-01 13:33:00.964
234.0, 28446.8640025692, 16011.090995203376, 0.0, -187500.02235174447, 0.0, 0.0, 0.0, -187500.02235174447, -0.264, 0.28600000000000003, -0.914, 192.0, 0.0, 0.0, 0.0, 0.0, 0.0, 0.0, 0.0, 0.0, 0.0, 1.677706380964197E9, 0.0, 2023-03-01 13:33:00.964
235.0, 28449.054473525823, 16024.83731804339, 0.0, -187500.02235174447, 0.0, 0.0, 0.0, -187500.02235174447, -0.264, 0.28600000000000003, -0.914, 192.0, 0.0, 0.0, 0.0, 0.0, 0.0, 0.0, 0.0, 0.0, 0.0, 1.677706380973469E9, 0.0, 2023-03-01 13:33:00.973
236.0, 28498.45182877205, 16083.376536771839, 0.0, -187500.02235174447, 0.0, 0.0, 0.0, -187500.02235174447, -0.264, 0.28600000000000003, -0.914, 192.0, 0.0, 0.0, 0.0, 0.0, 0.0, 0.0, 0.0, 0.0, 0.0, 1.67770638097348E9, 0.0, 2023-03-01 13:33:00.973
237.0, 28499.010622383434, 16074.547597711993, 0.0, -187500.02235174447, 0.0, 0.0, 0.0, -187500.02235174447, -0.264, 0.28600000000000003, -0.914, 192.0, 0.0, 0.0, 0.0, 0.0, 0.0, 0.0, 0.0, 0.0, 0.0, 1.677706380980116E9, 0.0, 2023-03-01 13:33:00.980
