%OpenBCI Raw EEG Data
%Number of channels = 8
%Sample Rate = 250 Hz
%Board = OpenBCI_GUI$BoardCytonSerial
Sample Index, EXG Channel 0, EXG Channel 1, EXG Channel 2, EXG Channel 3, EXG Channel 4, EXG Channel 5, EXG Channel 6, EXG Channel 7, Accel Channel 0, Accel Channel 1, Accel Channel 2, Other, Other, Other, Other, Other, Other, Other, Analog Channel 0, Analog Channel 1, Analog Channel 2, Timestamp, Other, Timestamp (Formatted)
83.0, 28350.08094907772, 16687.87946556562, 0.0, -187500.02235174447, 0.0, 0.0, 0.0, -187500.02235174447, 0.0, 0.0, 0.0, 192.0, 0.0, 0.0, 0.0, 0.0, 0.0, 0.0, 0.0, 0.0, 0.0, 1.677706474887551E9, 0.0, 2023-03-01 13:34:34.887
84.0, 28351.26559153385, 16675.273081692827, 0.0, -187500.02235174447, 0.0, 0.0, 0.0, -187500.02235174447, -0.28400000000000003, 0.28800000000000003, -0.92, 192.0, 247.0, 32.0, 9.0, 0.0, 227.0, 64.0, 0.0, 0.0, 0.0, 1.677706474887569E9, 0.0, 2023-03-01 13:34:34.887
85.0, 28318.85556207366, 16624.735787479378, 0.0, -187500.02235174447, 0.0, 0.0, 0.0, -187500.02235174447, -0.28400000000000003, 0.28800000000000003, -0.92, 192.0, 0.0, 0.0, 0.0, 0.0, 0.0, 0.0, 0.0, 0.0, 0.0, 1.677706474887577E9, 0.0, 2023-03-01 13:34:34.887
86.0, 28307.433820656996, 16630.457834059936, 0.0, -187500.02235174447, 0.0, 0.0, 0.0, -187500.02235174447, -0.28400000000000003, 0.28800000000000003, -0.92, 192.0, 0.0, 0.0, 0.0, 0.0, 0.0, 0.0, 0.0, 0.0, 0.0, 1.677706474887585E9, 0.0, 2023-03-01 13:34:34.887
87.0, 28339.866201861645, 16700.038814549305, 0.0, -187500.02235174447, 0.0, 0.0, 0.0, -187500.02235174447, -0.28400000000000003, 0.28800000000000003, -0.92, 192.0, 0.0, 0.0, 0.0, 0.0, 0.0, 0.0, 0.0, 0.0, 0.0, 1.677706474887592E9, 0.0, 2023-03-01 13:34:34.887
0.0, 0.0, 0.0, 0.0, 0.0, 0.0, 0.0, 0.0, 0.0, -0.29, 0.292, -0.904, 192.0, 246.0, 240.0, 9.0, 32.0, 227.0, 192.0, 0.0, 0.0, 0.0, 1.677706474969153E9, 0.0, 2023-03-01 13:34:34.969
1.0, 28184.163949985978, 16903.462040837054, 0.0, -187500.02235174447, 0.0, 0.0, 0.0, -187500.02235174447, -0.29, 0.292, -0.904, 192.0, 0.0, 0.0, 0.0, 0.0, 0.0, 0.0, 0.0, 0.0, 0.0, 1.677706474977497E9, 0.0, 2023-03-01 13:34:34.977
2.0, 28164.896746265502, 16867.542787497376, 0.0, -187500.02235174447, 0.0, 0.0, 0.0, -187500.02235174447, -0.29, 0.292, -0.904, 192.0, 0.0, 0.0, 0.0, 0.0, 0.0, 0.0, 0.0, 0.0, 0.0, 1.677706474985052E9, 0.0, 2023-03-01 13:34:34.985
3.0, 28133.112565650055, 16821.207621241527, 0.0, -187500.02235174447, 0.0, 0.0, 0.0, -187500.02235174447, -0.29, 0.292, -0.904, 192.0, 0.0, 0.0, 0.0, 0.0, 0.0, 0.0, 0.0, 0.0, 0.0, 1.677706474985071E9, 0.0, 2023-03-01 13:34:34.985
4.0, 28144.489603577807, 16848.208528543535, 0.0, -187500.02235174447, 0.0, 0.0, 0.0, -187500.02235174447, -0.29, 0.292, -0.904, 192.0, 0.0, 0.0, 0.0, 0.0, 0.0, 0.0, 0.0, 0.0, 0.0, 1.67770647499233E9, 0.0, 2023-03-01 13:34:34.992
5.0, 28171.334048668632, 16892.57674128732, 0.0, -187500.02235174447, 0.0, 0.0, 0.0, -187500.02235174447, -0.29, 0.292, -0.904, 192.0, 0.0, 0.0, 0.0, 0.0, 0.0, 0.0, 0.0, 0.0, 0.0, 1.677706474992345E9, 0.0, 2023-03-01 13:34:34.992
6.0, 28165.76846429926, 16869.3309270538, 0.0, -187500.02235174447, 0.0, 0.0, 0.0, -187500.02235174447, -0.29, 0.292, -0.904, 192.0, 0.0, 0.0, 0.0, 0.0, 0.0, 0.0, 0.0, 0.0, 0.0, 1.677706475000368E9, 0.0, 2023-03-01 13:34:35.000
7.0, 28142.09796692109, 16826.683798633076, 0.0, -187500.02235174447, 0.0, 0.0, 0.0, -187500.02235174447, -0.29, 0.292, -0.904, 192.0, 0.0, 0.0, 0.0, 0.0, 0.0, 0.0, 0.0, 0.0, 0.0, 1.677706475000382E9, 0.0, 2023-03-01 13:34:35.000
8.0, 28150.211650158366, 16847.58267969879, 0.0, -187500.02235174447, 0.0, 0.0, 0.0, -187500.02235174447, -0.298, 0.306, -0.906, 192.0, 246.0, 176.0, 9.0, 144.0, 227.0, 176.0, 0.0, 0.0, 0.0, 1.677706475006842E9, 0.0, 2023-03-01 13:34:35.006
9.0, 28181.48174065134, 16899.461078579556, 0.0, -187500.02235174447, 0.0, 0.0, 0.0, -187500.02235174447, -0.298, 0.306, -0.906, 192.0, 0.0, 0.0, 0.0, 0.0, 0.0, 0.0, 0.0, 0.0, 0.0, 1.677706475006854E9, 0.0, 2023-03-01 13:34:35.006
10.0, 28176.609060360082, 16887.21232261805, 0.0, -187500.02235174447, 0.0, 0.0, 0.0, -187500.02235174447, -0.298, 0.306, -0.906, 192.0, 0.0, 0.0, 0.0, 0.0, 0.0, 0.0, 0.0, 0.0, 0.0, 1.67770647501484E9, 0.0, 2023-03-01 13:34:35.014
11.0, 28152.200955414886, 16835.579792926288, 0.0, -187500.02235174447, 0.0, 0.0, 0.0, -187500.02235174447, -0.298, 0.306, -0.906, 192.0, 0.0, 0.0, 0.0, 0.0, 0.0, 0.0, 0.0, 0.0, 0.0, 1.67770647501486E9, 0.0, 2023-03-01 13:34:35.014
12.0, 28151.70921703687, 16838.843147616764, 0.0, -187500.02235174447, 0.0, 0.0, 0.0, -187500.02235174447, -0.298, 0.306, -0.906, 192.0, 0.0, 0.0, 0.0, 0.0, 0.0, 0.0, 0.0, 0.0, 0.0, 1.677706475022777E9, 0.0, 2023-03-01 13:34:35.022
13.0, 28171.24464169081, 16889.380441830213, 0.0, -187500.02235174447, 0.0, 0.0, 0.0, -187500.02235174447, -0.298, 0.306, -0.906, 192.0, 0.0, 0.0, 0.0, 0.0, 0.0, 0.0, 0.0, 0.0, 0.0, 1.677706475022792E9, 0.0, 2023-03-01 13:34:35.022
14.0, 28179.157159227987, 16896.19772388908, 0.0, -187500.02235174447, 0.0, 0.0, 0.0, -187500.02235174447, -0.298, 0.306, -0.906, 192.0, 0.0, 0.0, 0.0, 0.0, 0.0, 0.0, 0.0, 0.0, 0.0, 1.677706475030073E9, 0.0, 2023-03-01 13:34:35.030
15.0, 28156.961876983867, 16850.175482055605, 0.0, -187500.02235174447, 0.0, 0.0, 0.0, -187500.02235174447, -0.298, 0.306, -0.906, 192.0, 0.0, 0.0, 0.0, 0.0, 0.0, 0.0, 0.0, 0.0, 0.0, 1.677706475030093E9, 0.0, 2023-03-01 13:34:35.030
16.0, 28144.28843787771, 16839.111368550228, 0.0, -187500.02235174447, 0.0, 0.0, 0.0, -187500.02235174447, -0.298, 0.306, -0.906, 192.0, 0.0, 0.0, 0.0, 0.0, 0.0, 0.0, 0.0, 0.0, 0.0, 1.677706475036548E9, 0.0, 2023-03-01 13:34:35.036
17.0, 28170.104702723587, 16887.301729595867, 0.0, -187500.02235174447, 0.0, 0.0, 0.0, -187500.02235174447, -0.298, 0.306, -0.906, 192.0, 0.0, 0.0, 0.0, 0.0, 0.0, 0.0, 0.0, 0.0, 0.0, 1.677706475044498E9, 0.0, 2023-03-01 13:34:35.044
18.0, 28180.587670873127, 16896.644758778188, 0.0, -187500.02235174447, 0.0, 0.0, 0.0, -187500.02235174447, -0.3, 0.306, -0.904, 192.0, 246.0, 160.0, 9.0, 144.0, 227.0, 192.0, 0.0, 0.0, 0.0, 1.677706475044512E9, 0.0, 2023-03-01 13:34:35.044
19.0, 28152.93856298191, 16847.51562446542, 0.0, -187500.02235174447, 0.0, 0.0, 0.0, -187500.02235174447, -0.3, 0.306, -0.904, 192.0, 0.0, 0.0, 0.0, 0.0, 0.0, 0.0, 0.0, 0.0, 0.0, 1.677706475052452E9, 0.0, 2023-03-01 13:34:35.052
20.0, 28133.04551041669, 16828.09195853376, 0.0, -187500.02235174447, 0.0, 0.0, 0.0, -187500.02235174447, -0.3, 0.306, -0.904, 192.0, 0.0, 0.0, 0.0, 0.0, 0.0, 0.0, 0.0, 0.0, 0.0, 1.677706475052466E9, 0.0, 2023-03-01 13:34:35.052
21.0, 28157.632429317528, 16875.745877712474, 0.0, -187500.02235174447, 0.0, 0.0, 0.0, -187500.02235174447, -0.3, 0.306, -0.904, 192.0, 0.0, 0.0, 0.0, 0.0, 0.0, 0.0, 0.0, 0.0, 0.0, 1.677706475059226E9, 0.0, 2023-03-01 13:34:35.059
22.0, 28177.257260949285, 16896.041261677892, 0.0, -187500.02235174447, 0.0, 0.0, 0.0, -187500.02235174447, -0.3, 0.306, -0.904, 192.0, 0.0, 0.0, 0.0, 0.0, 0.0, 0.0, 0.0, 0.0, 0.0, 1.677706475059243E9, 0.0, 2023-03-01 13:34:35.059
23.0, 28159.867603763058, 16852.567118712323, 0.0, -187500.02235174447, 0.0, 0.0, 0.0, -187500.02235174447, -0.3, 0.306, -0.904, 192.0, 0.0, 0.0, 0.0, 0.0, 0.0, 0.0, 0.0, 0.0, 0.0, 1.677706475067122E9, 0.0, 2023-03-01 13:34:35.067
24.0, 28134.453670317373, 16816.580810139276, 0.0, -187500.02235174447, 0.0, 0.0, 0.0, -187500.02235174447, -0.3, 0.306, -0.904, 192.0, 0.0, 0.0, 0.0, 0.0, 0.0, 0.0, 0.0, 0.0, 0.0, 1.677706475067137E9, 0.0, 2023-03-01 13:34:35.067
25.0, 28145.920115222947, 16853.505891979443, 0.0, -187500.02235174447, 0.0, 0.0, 0.0, -187500.02235174447, -0.3, 0.306, -0.904, 192.0, 0.0, 0.0, 0.0, 0.0, 0.0, 0.0, 0.0, 0.0, 0.0, 1.677706475075111E9, 0.0, 2023-03-01 13:34:35.075
26.0, 28171.557566113184, 16891.68267150911, 0.0, -187500.02235174447, 0.0, 0.0, 0.0, -187500.02235174447, -0.3, 0.306, -0.904, 192.0, 0.0, 0.0, 0.0, 0.0, 0.0, 0.0, 0.0, 0.0, 0.0, 1.677706475075129E9, 0.0, 2023-03-01 13:34:35.075
27.0, 28161.901612508493, 16867.09575260827, 0.0, -187500.02235174447, 0.0, 0.0, 0.0, -187500.02235174447, -0.3, 0.306, -0.904, 192.0, 0.0, 0.0, 0.0, 0.0, 0.0, 0.0, 0.0, 0.0, 0.0, 1.677706475082315E9, 0.0, 2023-03-01 13:34:35.082
28.0, 28140.265123875753, 16828.337827722768, 0.0, -187500.02235174447, 0.0, 0.0, 0.0, -187500.02235174447, -0.308, 0.308, -0.902, 192.0, 246.0, 96.0, 9.0, 160.0, 227.0, 208.0, 0.0, 0.0, 0.0, 1.677706475082366E9, 0.0, 2023-03-01 13:34:35.082
29.0, 28156.783063028226, 16860.2784705494, 0.0, -187500.02235174447, 0.0, 0.0, 0.0, -187500.02235174447, -0.308, 0.308, -0.902, 192.0, 0.0, 0.0, 0.0, 0.0, 0.0, 0.0, 0.0, 0.0, 0.0, 1.677706475089755E9, 0.0, 2023-03-01 13:34:35.089
30.0, 28189.86364482208, 16906.16660191615, 0.0, -187500.02235174447, 0.0, 0.0, 0.0, -187500.02235174447, -0.308, 0.308, -0.902, 192.0, 0.0, 0.0, 0.0, 0.0, 0.0, 0.0, 0.0, 0.0, 0.0, 1.677706475089763E9, 0.0, 2023-03-01 13:34:35.089
31.0, 28176.56435687117, 16883.010194660448, 0.0, -187500.02235174447, 0.0, 0.0, 0.0, -187500.02235174447, -0.308, 0.308, -0.902, 192.0, 0.0, 0.0, 0.0, 0.0, 0.0, 0.0, 0.0, 0.0, 0.0, 1.677706475096751E9, 0.0, 2023-03-01 13:34:35.096
32.0, 28150.09989143609, 16836.85384236024, 0.0, -187500.02235174447, 0.0, 0.0, 0.0, -187500.02235174447, -0.308, 0.308, -0.902, 192.0, 0.0, 0.0, 0.0, 0.0, 0.0, 0.0, 0.0, 0.0, 0.0, 1.677706475104691E9, 0.0, 2023-03-01 13:34:35.104
33.0, 28154.413778115962, 16849.683743677586, 0.0, -187500.02235174447, 0.0, 0.0, 0.0, -187500.02235174447, -0.308, 0.308, -0.902, 192.0, 0.0, 0.0, 0.0, 0.0, 0.0, 0.0, 0.0, 0.0, 0.0, 1.677706475104706E9, 0.0, 2023-03-01 13:34:35.104
34.0, 28174.73151382584, 16894.297825610378, 0.0, -187500.02235174447, 0.0, 0.0, 0.0, -187500.02235174447, -0.308, 0.308, -0.902, 192.0, 0.0, 0.0, 0.0, 0.0, 0.0, 0.0, 0.0, 0.0, 0.0, 1.677706475111969E9, 0.0, 2023-03-01 13:34:35.111
35.0, 28172.831615547137, 16880.685613237096, 0.0, -187500.02235174447, 0.0, 0.0, 0.0, -187500.02235174447, -0.308, 0.308, -0.902, 192.0, 0.0, 0.0, 0.0, 0.0, 0.0, 0.0, 0.0, 0.0, 0.0, 1.677706475111984E9, 0.0, 2023-03-01 13:34:35.111
36.0, 28142.924981465934, 16829.61187715672, 0.0, -187500.02235174447, 0.0, 0.0, 0.0, -187500.02235174447, -0.308, 0.308, -0.902, 192.0, 0.0, 0.0, 0.0, 0.0, 0.0, 0.0, 0.0, 0.0, 0.0, 1.677706475119424E9, 0.0, 2023-03-01 13:34:35.119
37.0, 28143.439071588407, 16838.306705749834, 0.0, -187500.02235174447, 0.0, 0.0, 0.0, -187500.02235174447, -0.308, 0.308, -0.902, 192.0, 0.0, 0.0, 0.0, 0.0, 0.0, 0.0, 0.0, 0.0, 0.0, 1.677706475119438E9, 0.0, 2023-03-01 13:34:35.119
38.0, 28174.10566498109, 16895.05778492186, 0.0, -187500.02235174447, 0.0, 0.0, 0.0, -187500.02235174447, -0.3, 0.308, -0.902, 192.0, 246.0, 160.0, 9.0, 160.0, 227.0, 208.0, 0.0, 0.0, 0.0, 1.677706475127381E9, 0.0, 2023-03-01 13:34:35.127
39.0, 28177.927813282946, 16898.634064034708, 0.0, -187500.02235174447, 0.0, 0.0, 0.0, -187500.02235174447, -0.3, 0.308, -0.902, 192.0, 0.0, 0.0, 0.0, 0.0, 0.0, 0.0, 0.0, 0.0, 0.0, 1.677706475127391E9, 0.0, 2023-03-01 13:34:35.127
40.0, 28148.28940013521, 16843.71582790802, 0.0, -187500.02235174447, 0.0, 0.0, 0.0, -187500.02235174447, -0.3, 0.308, -0.902, 192.0, 0.0, 0.0, 0.0, 0.0, 0.0, 0.0, 0.0, 0.0, 0.0, 1.677706475135337E9, 0.0, 2023-03-01 13:34:35.135
41.0, 28140.086309920112, 16834.015170814415, 0.0, -187500.02235174447, 0.0, 0.0, 0.0, -187500.02235174447, -0.3, 0.308, -0.902, 192.0, 0.0, 0.0, 0.0, 0.0, 0.0, 0.0, 0.0, 0.0, 0.0, 1.677706475135352E9, 0.0, 2023-03-01 13:34:35.135
42.0, 28167.400141644495, 16885.29007259489, 0.0, -187500.02235174447, 0.0, 0.0, 0.0, -187500.02235174447, -0.3, 0.308, -0.902, 192.0, 0.0, 0.0, 0.0, 0.0, 0.0, 0.0, 0.0, 0.0, 0.0, 1.677706475142082E9, 0.0, 2023-03-01 13:34:35.142
43.0, 28185.01331627528, 16895.326005855324, 0.0, -187500.02235174447, 0.0, 0.0, 0.0, -187500.02235174447, -0.3, 0.308, -0.902, 192.0, 0.0, 0.0, 0.0, 0.0, 0.0, 0.0, 0.0, 0.0, 0.0, 1.677706475142104E9, 0.0, 2023-03-01 13:34:35.142
44.0, 28167.1989759444, 16850.778979155897, 0.0, -187500.02235174447, 0.0, 0.0, 0.0, -187500.02235174447, -0.3, 0.308, -0.902, 192.0, 0.0, 0.0, 0.0, 0.0, 0.0, 0.0, 0.0, 0.0, 0.0, 1.677706475150022E9, 0.0, 2023-03-01 13:34:35.150
45.0, 28147.037702445712, 16832.33878998027, 0.0, -187500.02235174447, 0.0, 0.0, 0.0, -187500.02235174447, -0.3, 0.308, -0.902, 192.0, 0.0, 0.0, 0.0, 0.0, 0.0, 0.0, 0.0, 0.0, 0.0, 1.677706475150086E9, 0.0, 2023-03-01 13:34:35.150
46.0, 28164.0473799762, 16877.601072502264, 0.0, -187500.02235174447, 0.0, 0.0, 0.0, -187500.02235174447, -0.3, 0.308, -0.902, 192.0, 0.0, 0.0, 0.0, 0.0, 0.0, 0.0, 0.0, 0.0, 0.0, 1.67770647515703E9, 0.0, 2023-03-01 13:34:35.157
47.0, 28175.62558360405, 16899.95281695757, 0.0, -187500.02235174447, 0.0, 0.0, 0.0, -187500.02235174447, -0.3, 0.308, -0.902, 192.0, 0.0, 0.0, 0.0, 0.0, 0.0, 0.0, 0.0, 0.0, 0.0, 1.677706475165126E9, 0.0, 2023-03-01 13:34:35.165
48.0, 28156.693656050404, 16857.886833892684, 0.0, -187500.02235174447, 0.0, 0.0, 0.0, -187500.02235174447, -0.3, 0.308, -0.902, 192.0, 246.0, 160.0, 9.0, 160.0, 227.0, 208.0, 0.0, 0.0, 0.0, 1.677706475165145E9, 0.0, 2023-03-01 13:34:35.165
49.0, 28134.006635428268, 16820.112385763216, 0.0, -187500.02235174447, 0.0, 0.0, 0.0, -187500.02235174447, -0.3, 0.308, -0.902, 192.0, 0.0, 0.0, 0.0, 0.0, 0.0, 0.0, 0.0, 0.0, 0.0, 1.677706475171555E9, 0.0, 2023-03-01 13:34:35.171
50.0, 28152.223307159344, 16856.210453058535, 0.0, -187500.02235174447, 0.0, 0.0, 0.0, -187500.02235174447, -0.3, 0.308, -0.902, 192.0, 0.0, 0.0, 0.0, 0.0, 0.0, 0.0, 0.0, 0.0, 0.0, 1.677706475171566E9, 0.0, 2023-03-01 13:34:35.171
51.0, 28177.57018537166, 16894.051956421372, 0.0, -187500.02235174447, 0.0, 0.0, 0.0, -187500.02235174447, -0.3, 0.308, -0.902, 192.0, 0.0, 0.0, 0.0, 0.0, 0.0, 0.0, 0.0, 0.0, 0.0, 1.677706475179654E9, 0.0, 2023-03-01 13:34:35.179
52.0, 28177.01139176028, 16873.756572455954, 0.0, -187500.02235174447, 0.0, 0.0, 0.0, -187500.02235174447, -0.3, 0.308, -0.902, 192.0, 0.0, 0.0, 0.0, 0.0, 0.0, 0.0, 0.0, 0.0, 0.0, 1.677706475179673E9, 0.0, 2023-03-01 13:34:35.179
53.0, 28175.58088011514, 16855.852825147253, 0.0, -187500.02235174447, 0.0, 0.0, 0.0, -187500.02235174447, -0.3, 0.308, -0.902, 192.0, 0.0, 0.0, 0.0, 0.0, 0.0, 0.0, 0.0, 0.0, 0.0, 1.677706475187604E9, 0.0, 2023-03-01 13:34:35.187
54.0, 28178.933641783435, 16870.96260439904, 0.0, -187500.02235174447, 0.0, 0.0, 0.0, -187500.02235174447, -0.3, 0.308, -0.902, 192.0, 0.0, 0.0, 0.0, 0.0, 0.0, 0.0, 0.0, 0.0, 0.0, 1.677706475187622E9, 0.0, 2023-03-01 13:34:35.187
55.0, 28178.66542084997, 16887.525247040423, 0.0, -187500.02235174447, 0.0, 0.0, 0.0, -187500.02235174447, -0.3, 0.308, -0.902, 192.0, 0.0, 0.0, 0.0, 0.0, 0.0, 0.0, 0.0, 0.0, 0.0, 1.677706475194838E9, 0.0, 2023-03-01 13:34:35.194
56.0, 28172.742208569314, 16870.180293343103, 0.0, -187500.02235174447, 0.0, 0.0, 0.0, -187500.02235174447, -0.3, 0.308, -0.902, 192.0, 0.0, 0.0, 0.0, 0.0, 0.0, 0.0, 0.0, 0.0, 0.0, 1.677706475194854E9, 0.0, 2023-03-01 13:34:35.194
57.0, 28156.403083372486, 16832.71876963601, 0.0, -187500.02235174447, 0.0, 0.0, 0.0, -187500.02235174447, -0.3, 0.308, -0.902, 192.0, 0.0, 0.0, 0.0, 0.0, 0.0, 0.0, 0.0, 0.0, 0.0, 1.677706475202254E9, 0.0, 2023-03-01 13:34:35.202
58.0, 28164.47206312085, 16850.063723333325, 0.0, -187500.02235174447, 0.0, 0.0, 0.0, -187500.02235174447, -0.3, 0.308, -0.902, 192.0, 0.0, 0.0, 0.0, 0.0, 0.0, 0.0, 0.0, 0.0, 0.0, 1.677706475202265E9, 0.0, 2023-03-01 13:34:35.202
59.0, 28192.992889045825, 16898.276436123426, 0.0, -187500.02235174447, 0.0, 0.0, 0.0, -187500.02235174447, -0.302, 0.3, -0.896, 192.0, 246.0, 144.0, 9.0, 96.0, 228.0, 0.0, 0.0, 0.0, 0.0, 1.677706475210255E9, 0.0, 2023-03-01 13:34:35.210
60.0, 28199.2066740044, 16890.453325564067, 0.0, -187500.02235174447, 0.0, 0.0, 0.0, -187500.02235174447, -0.302, 0.3, -0.896, 192.0, 0.0, 0.0, 0.0, 0.0, 0.0, 0.0, 0.0, 0.0, 0.0, 1.677706475210267E9, 0.0, 2023-03-01 13:34:35.210
61.0, 28189.930700055447, 16849.81785414432, 0.0, -187500.02235174447, 0.0, 0.0, 0.0, -187500.02235174447, -0.302, 0.3, -0.896, 192.0, 0.0, 0.0, 0.0, 0.0, 0.0, 0.0, 0.0, 0.0, 0.0, 1.677706475217343E9, 0.0, 2023-03-01 13:34:35.217
62.0, 28188.52254015476, 16852.6788774346, 0.0, -187500.02235174447, 0.0, 0.0, 0.0, -187500.02235174447, -0.302, 0.3, -0.896, 192.0, 0.0, 0.0, 0.0, 0.0, 0.0, 0.0, 0.0, 0.0, 0.0, 1.677706475217354E9, 0.0, 2023-03-01 13:34:35.217
63.0, 28205.889845596535, 16900.221037891035, 0.0, -187500.02235174447, 0.0, 0.0, 0.0, -187500.02235174447, -0.302, 0.3, -0.896, 192.0, 0.0, 0.0, 0.0, 0.0, 0.0, 0.0, 0.0, 0.0, 0.0, 1.677706475224562E9, 0.0, 2023-03-01 13:34:35.224
64.0, 28209.73434564285, 16904.646683293187, 0.0, -187500.02235174447, 0.0, 0.0, 0.0, -187500.02235174447, -0.302, 0.3, -0.896, 192.0, 0.0, 0.0, 0.0, 0.0, 0.0, 0.0, 0.0, 0.0, 0.0, 1.677706475231901E9, 0.0, 2023-03-01 13:34:35.231
65.0, 28190.087162266635, 16856.299860036357, 0.0, -187500.02235174447, 0.0, 0.0, 0.0, -187500.02235174447, -0.302, 0.3, -0.896, 192.0, 0.0, 0.0, 0.0, 0.0, 0.0, 0.0, 0.0, 0.0, 0.0, 1.677706475231919E9, 0.0, 2023-03-01 13:34:35.231
66.0, 28178.151330727498, 16842.33001975179, 0.0, -187500.02235174447, 0.0, 0.0, 0.0, -187500.02235174447, -0.302, 0.3, -0.896, 192.0, 0.0, 0.0, 0.0, 0.0, 0.0, 0.0, 0.0, 0.0, 0.0, 1.677706475240089E9, 0.0, 2023-03-01 13:34:35.240
67.0, 28196.189188502933, 16889.00046217447, 0.0, -187500.02235174447, 0.0, 0.0, 0.0, -187500.02235174447, -0.302, 0.3, -0.896, 192.0, 0.0, 0.0, 0.0, 0.0, 0.0, 0.0, 0.0, 0.0, 0.0, 1.677706475240105E9, 0.0, 2023-03-01 13:34:35.240
68.0, 28207.029784563758, 16898.90228496817, 0.0, -187500.02235174447, 0.0, 0.0, 0.0, -187500.02235174447, -0.302, 0.3, -0.896, 192.0, 0.0, 0.0, 0.0, 0.0, 0.0, 0.0, 0.0, 0.0, 0.0, 1.677706475247938E9, 0.0, 2023-03-01 13:34:35.247
69.0, 28181.86172030708, 16846.71096166503, 0.0, -187500.02235174447, 0.0, 0.0, 0.0, -187500.02235174447, -0.302, 0.306, -0.902, 192.0, 246.0, 144.0, 9.0, 144.0, 227.0, 208.0, 0.0, 0.0, 0.0, 1.677706475247949E9, 0.0, 2023-03-01 13:34:35.247
70.0, 28158.012408973267, 16821.967580553006, 0.0, -187500.02235174447, 0.0, 0.0, 0.0, -187500.02235174447, -0.302, 0.306, -0.902, 192.0, 0.0, 0.0, 0.0, 0.0, 0.0, 0.0, 0.0, 0.0, 0.0, 1.677706475254578E9, 0.0, 2023-03-01 13:34:35.254
71.0, 28175.826749304146, 16867.162807841636, 0.0, -187500.02235174447, 0.0, 0.0, 0.0, -187500.02235174447, -0.302, 0.306, -0.902, 192.0, 0.0, 0.0, 0.0, 0.0, 0.0, 0.0, 0.0, 0.0, 0.0, 1.677706475254587E9, 0.0, 2023-03-01 13:34:35.254
72.0, 28202.62649090606, 16901.45038383608, 0.0, -187500.02235174447, 0.0, 0.0, 0.0, -187500.02235174447, -0.302, 0.306, -0.902, 192.0, 0.0, 0.0, 0.0, 0.0, 0.0, 0.0, 0.0, 0.0, 0.0, 1.67770647526272E9, 0.0, 2023-03-01 13:34:35.262
73.0, 28192.322336712165, 16865.754647940954, 0.0, -187500.02235174447, 0.0, 0.0, 0.0, -187500.02235174447, -0.302, 0.306, -0.902, 192.0, 0.0, 0.0, 0.0, 0.0, 0.0, 0.0, 0.0, 0.0, 0.0, 1.677706475262743E9, 0.0, 2023-03-01 13:34:35.262
74.0, 28172.09400798011, 16829.254249245438, 0.0, -187500.02235174447, 0.0, 0.0, 0.0, -187500.02235174447, -0.302, 0.306, -0.902, 192.0, 0.0, 0.0, 0.0, 0.0, 0.0, 0.0, 0.0, 0.0, 0.0, 1.677706475270556E9, 0.0, 2023-03-01 13:34:35.270
75.0, 28187.11438025408, 16866.71577295253, 0.0, -187500.02235174447, 0.0, 0.0, 0.0, -187500.02235174447, -0.302, 0.306, -0.902, 192.0, 0.0, 0.0, 0.0, 0.0, 0.0, 0.0, 0.0, 0.0, 0.0, 1.677706475270569E9, 0.0, 2023-03-01 13:34:35.270
76.0, 28213.847066622624, 16905.272532137937, 0.0, -187500.02235174447, 0.0, 0.0, 0.0, -187500.02235174447, -0.302, 0.306, -0.902, 192.0, 0.0, 0.0, 0.0, 0.0, 0.0, 0.0, 0.0, 0.0, 0.0, 1.677706475277202E9, 0.0, 2023-03-01 13:34:35.277
77.0, 28201.06186879419, 16873.756572455954, 0.0, -187500.02235174447, 0.0, 0.0, 0.0, -187500.02235174447, -0.302, 0.306, -0.902, 192.0, 0.0, 0.0, 0.0, 0.0, 0.0, 0.0, 0.0, 0.0, 0.0, 1.677706475277263E9, 0.0, 2023-03-01 13:34:35.277
78.0, 28174.217423703365, 16828.360179467225, 0.0, -187500.02235174447, 0.0, 0.0, 0.0, -187500.02235174447, -0.302, 0.306, -0.902, 192.0, 0.0, 0.0, 0.0, 0.0, 0.0, 0.0, 0.0, 0.0, 0.0, 1.677706475284249E9, 0.0, 2023-03-01 13:34:35.284
79.0, 28185.795627331216, 16858.490330992976, 0.0, -187500.02235174447, 0.0, 0.0, 0.0, -187500.02235174447, -0.3, 0.308, -0.898, 192.0, 246.0, 160.0, 9.0, 160.0, 227.0, 240.0, 0.0, 0.0, 0.0, 1.677706475292278E9, 0.0, 2023-03-01 13:34:35.292
80.0, 28211.76835438828, 16907.507706583467, 0.0, -187500.02235174447, 0.0, 0.0, 0.0, -187500.02235174447, -0.3, 0.308, -0.898, 192.0, 0.0, 0.0, 0.0, 0.0, 0.0, 0.0, 0.0, 0.0, 0.0, 1.677706475292288E9, 0.0, 2023-03-01 13:34:35.292
81.0, 28203.29704323972, 16887.48054355151, 0.0, -187500.02235174447, 0.0, 0.0, 0.0, -187500.02235174447, -0.3, 0.308, -0.898, 192.0, 0.0, 0.0, 0.0, 0.0, 0.0, 0.0, 0.0, 0.0, 0.0, 1.677706475300276E9, 0.0, 2023-03-01 13:34:35.300
82.0, 28175.75969407078, 16838.08318830528, 0.0, -187500.02235174447, 0.0, 0.0, 0.0, -187500.02235174447, -0.3, 0.308, -0.898, 192.0, 0.0, 0.0, 0.0, 0.0, 0.0, 0.0, 0.0, 0.0, 0.0, 1.677706475300286E9, 0.0, 2023-03-01 13:34:35.300
83.0, 28182.62167961856, 16853.550595468354, 0.0, -187500.02235174447, 0.0, 0.0, 0.0, -187500.02235174447, -0.3, 0.308, -0.898, 192.0, 0.0, 0.0, 0.0, 0.0, 0.0, 0.0, 0.0, 0.0, 0.0, 1.67770647530679E9, 0.0, 2023-03-01 13:34:35.306
84.0, 28211.991871832834, 16902.903247225673, 0.0, -187500.02235174447, 0.0, 0.0, 0.0, -187500.02235174447, -0.3, 0.308, -0.898, 192.0, 0.0, 0.0, 0.0, 0.0, 0.0, 0.0, 0.0, 0.0, 0.0, 1.677706475306812E9, 0.0, 2023-03-01 13:34:35.306
85.0, 28215.165819545487, 16895.147191899683, 0.0, -187500.02235174447, 0.0, 0.0, 0.0, -187500.02235174447, -0.3, 0.308, -0.898, 192.0, 0.0, 0.0, 0.0, 0.0, 0.0, 0.0, 0.0, 0.0, 0.0, 1.677706475314903E9, 0.0, 2023-03-01 13:34:35.314
86.0, 28192.657612878993, 16849.929612866596, 0.0, -187500.02235174447, 0.0, 0.0, 0.0, -187500.02235174447, -0.3, 0.308, -0.898, 192.0, 0.0, 0.0, 0.0, 0.0, 0.0, 0.0, 0.0, 0.0, 0.0, 1.677706475314921E9, 0.0, 2023-03-01 13:34:35.314
87.0, 28185.214481975378, 16848.81202564383, 0.0, -187500.02235174447, 0.0, 0.0, 0.0, -187500.02235174447, -0.3, 0.308, -0.898, 192.0, 0.0, 0.0, 0.0, 0.0, 0.0, 0.0, 0.0, 0.0, 0.0, 1.677706475322911E9, 0.0, 2023-03-01 13:34:35.322
88.0, 28210.024918320767, 16900.221037891035, 0.0, -187500.02235174447, 0.0, 0.0, 0.0, -187500.02235174447, -0.3, 0.308, -0.898, 192.0, 0.0, 0.0, 0.0, 0.0, 0.0, 0.0, 0.0, 0.0, 0.0, 1.677706475322927E9, 0.0, 2023-03-01 13:34:35.322
89.0, 28213.1094590556, 16900.44455533559, 0.0, -187500.02235174447, 0.0, 0.0, 0.0, -187500.02235174447, -0.304, 0.308, -0.908, 192.0, 246.0, 128.0, 9.0, 160.0, 227.0, 160.0, 0.0, 0.0, 0.0, 1.677706475329965E9, 0.0, 2023-03-01 13:34:35.329
90.0, 28189.260147721787, 16852.00832510094, 0.0, -187500.02235174447, 0.0, 0.0, 0.0, -187500.02235174447, -0.304, 0.308, -0.908, 192.0, 0.0, 0.0, 0.0, 0.0, 0.0, 0.0, 0.0, 0.0, 0.0, 1.67770647532998E9, 0.0, 2023-03-01 13:34:35.329
91.0, 28180.542967384215, 16838.977258083494, 0.0, -187500.02235174447, 0.0, 0.0, 0.0, -187500.02235174447, -0.304, 0.308, -0.908, 192.0, 0.0, 0.0, 0.0, 0.0, 0.0, 0.0, 0.0, 0.0, 0.0, 1.677706475337421E9, 0.0, 2023-03-01 13:34:35.337
92.0, 28201.53125542775, 16888.955758685563, 0.0, -187500.02235174447, 0.0, 0.0, 0.0, -187500.02235174447, -0.304, 0.308, -0.908, 192.0, 0.0, 0.0, 0.0, 0.0, 0.0, 0.0, 0.0, 0.0, 0.0, 1.67770647533743E9, 0.0, 2023-03-01 13:34:35.337
93.0, 28215.702261412414, 16907.10537518327, 0.0, -187500.02235174447, 0.0, 0.0, 0.0, -187500.02235174447, -0.304, 0.308, -0.908, 192.0, 0.0, 0.0, 0.0, 0.0, 0.0, 0.0, 0.0, 0.0, 0.0, 1.677706475344569E9, 0.0, 2023-03-01 13:34:35.344
94.0, 28201.777124616758, 16865.709944452043, 0.0, -187500.02235174447, 0.0, 0.0, 0.0, -187500.02235174447, -0.304, 0.308, -0.908, 192.0, 0.0, 0.0, 0.0, 0.0, 0.0, 0.0, 0.0, 0.0, 0.0, 1.677706475352439E9, 0.0, 2023-03-01 13:34:35.352
95.0, 28180.565319128673, 16838.23965051647, 0.0, -187500.02235174447, 0.0, 0.0, 0.0, -187500.02235174447, -0.304, 0.308, -0.908, 192.0, 0.0, 0.0, 0.0, 0.0, 0.0, 0.0, 0.0, 0.0, 0.0, 1.677706475352453E9, 0.0, 2023-03-01 13:34:35.352
96.0, 28198.357307715098, 16879.791543458887, 0.0, -187500.02235174447, 0.0, 0.0, 0.0, -187500.02235174447, -0.304, 0.308, -0.908, 192.0, 0.0, 0.0, 0.0, 0.0, 0.0, 0.0, 0.0, 0.0, 0.0, 1.6777064753597E9, 0.0, 2023-03-01 13:34:35.359
97.0, 28220.485534725853, 16913.363863630755, 0.0, -187500.02235174447, 0.0, 0.0, 0.0, -187500.02235174447, -0.304, 0.308, -0.908, 192.0, 0.0, 0.0, 0.0, 0.0, 0.0, 0.0, 0.0, 0.0, 0.0, 1.677706475359717E9, 0.0, 2023-03-01 13:34:35.359
98.0, 28204.81696186268, 16875.812932945842, 0.0, -187500.02235174447, 0.0, 0.0, 0.0, -187500.02235174447, -0.304, 0.308, -0.908, 192.0, 0.0, 0.0, 0.0, 0.0, 0.0, 0.0, 0.0, 0.0, 0.0, 1.677706475367122E9, 0.0, 2023-03-01 13:34:35.367
99.0, 28180.140635984022, 16836.697380149053, 0.0, -187500.02235174447, 0.0, 0.0, 0.0, -187500.02235174447, -0.302, 0.302, -0.9, 192.0, 246.0, 144.0, 9.0, 112.0, 227.0, 224.0, 0.0, 0.0, 0.0, 1.677706475367131E9, 0.0, 2023-03-01 13:34:35.367
100.0, 28193.90931056849, 16875.701174223563, 0.0, -187500.02235174447, 0.0, 0.0, 0.0, -187500.02235174447, -0.302, 0.302, -0.9, 192.0, 0.0, 0.0, 0.0, 0.0, 0.0, 0.0, 0.0, 0.0, 0.0, 1.677706475375101E9, 0.0, 2023-03-01 13:34:35.375
101.0, 28214.8081916342, 16913.006235719473, 0.0, -187500.02235174447, 0.0, 0.0, 0.0, -187500.02235174447, -0.302, 0.302, -0.9, 192.0, 0.0, 0.0, 0.0, 0.0, 0.0, 0.0, 0.0, 0.0, 0.0, 1.677706475375113E9, 0.0, 2023-03-01 13:34:35.375
102.0, 28204.615796162583, 16880.216226603538, 0.0, -187500.02235174447, 0.0, 0.0, 0.0, -187500.02235174447, -0.302, 0.302, -0.9, 192.0, 0.0, 0.0, 0.0, 0.0, 0.0, 0.0, 0.0, 0.0, 0.0, 1.677706475383192E9, 0.0, 2023-03-01 13:34:35.383
103.0, 28186.756752342793, 16837.502042949443, 0.0, -187500.02235174447, 0.0, 0.0, 0.0, -187500.02235174447, -0.302, 0.302, -0.9, 192.0, 0.0, 0.0, 0.0, 0.0, 0.0, 0.0, 0.0, 0.0, 0.0, 1.677706475383206E9, 0.0, 2023-03-01 13:34:35.383
104.0, 28191.562377400685, 16866.648717719167, 0.0, -187500.02235174447, 0.0, 0.0, 0.0, -187500.02235174447, -0.302, 0.302, -0.9, 192.0, 0.0, 0.0, 0.0, 0.0, 0.0, 0.0, 0.0, 0.0, 0.0, 1.677706475390287E9, 0.0, 2023-03-01 13:34:35.390
105.0, 28216.931607357456, 16909.474660095533, 0.0, -187500.02235174447, 0.0, 0.0, 0.0, -187500.02235174447, -0.302, 0.302, -0.9, 192.0, 0.0, 0.0, 0.0, 0.0, 0.0, 0.0, 0.0, 0.0, 0.0, 1.677706475390307E9, 0.0, 2023-03-01 13:34:35.390
106.0, 28212.39420323303, 16888.39696507418, 0.0, -187500.02235174447, 0.0, 0.0, 0.0, -187500.02235174447, -0.302, 0.302, -0.9, 192.0, 0.0, 0.0, 0.0, 0.0, 0.0, 0.0, 0.0, 0.0, 0.0, 1.67770647539776E9, 0.0, 2023-03-01 13:34:35.397
107.0, 28186.28736570923, 16843.402903485647, 0.0, -187500.02235174447, 0.0, 0.0, 0.0, -187500.02235174447, -0.302, 0.302, -0.9, 192.0, 0.0, 0.0, 0.0, 0.0, 0.0, 0.0, 0.0, 0.0, 0.0, 1.677706475397778E9, 0.0, 2023-03-01 13:34:35.397
108.0, 28184.320412197165, 16853.841168146275, 0.0, -187500.02235174447, 0.0, 0.0, 0.0, -187500.02235174447, -0.302, 0.302, -0.9, 192.0, 0.0, 0.0, 0.0, 0.0, 0.0, 0.0, 0.0, 0.0, 0.0, 1.677706475404652E9, 0.0, 2023-03-01 13:34:35.404
109.0, 28209.86845610958, 16905.384290860213, 0.0, -187500.02235174447, 0.0, 0.0, 0.0, -187500.02235174447, -0.3, 0.306, -0.898, 192.0, 246.0, 160.0, 9.0, 144.0, 227.0, 240.0, 0.0, 0.0, 0.0, 1.677706475412819E9, 0.0, 2023-03-01 13:34:35.412
110.0, 28212.39420323303, 16898.34349135679, 0.0, -187500.02235174447, 0.0, 0.0, 0.0, -187500.02235174447, -0.3, 0.306, -0.898, 192.0, 0.0, 0.0, 0.0, 0.0, 0.0, 0.0, 0.0, 0.0, 0.0, 1.677706475412863E9, 0.0, 2023-03-01 13:34:35.412
111.0, 28184.76744708627, 16844.81106338633, 0.0, -187500.02235174447, 0.0, 0.0, 0.0, -187500.02235174447, -0.3, 0.306, -0.898, 192.0, 0.0, 0.0, 0.0, 0.0, 0.0, 0.0, 0.0, 0.0, 0.0, 1.677706475419398E9, 0.0, 2023-03-01 13:34:35.419
112.0, 28178.48660689433, 16841.167729040113, 0.0, -187500.02235174447, 0.0, 0.0, 0.0, -187500.02235174447, -0.3, 0.306, -0.898, 192.0, 0.0, 0.0, 0.0, 0.0, 0.0, 0.0, 0.0, 0.0, 0.0, 1.677706475419409E9, 0.0, 2023-03-01 13:34:35.419
113.0, 28210.53900844324, 16893.470811065534, 0.0, -187500.02235174447, 0.0, 0.0, 0.0, -187500.02235174447, -0.3, 0.306, -0.898, 192.0, 0.0, 0.0, 0.0, 0.0, 0.0, 0.0, 0.0, 0.0, 0.0, 1.677706475427411E9, 0.0, 2023-03-01 13:34:35.427
114.0, 28221.133735315056, 16904.020834448438, 0.0, -187500.02235174447, 0.0, 0.0, 0.0, -187500.02235174447, -0.3, 0.306, -0.898, 192.0, 0.0, 0.0, 0.0, 0.0, 0.0, 0.0, 0.0, 0.0, 0.0, 1.677706475427435E9, 0.0, 2023-03-01 13:34:35.427
115.0, 28195.585691402637, 16857.81977865932, 0.0, -187500.02235174447, 0.0, 0.0, 0.0, -187500.02235174447, -0.3, 0.306, -0.898, 192.0, 0.0, 0.0, 0.0, 0.0, 0.0, 0.0, 0.0, 0.0, 0.0, 1.677706475435432E9, 0.0, 2023-03-01 13:34:35.435
116.0, 28183.739266841327, 16842.218261029513, 0.0, -187500.02235174447, 0.0, 0.0, 0.0, -187500.02235174447, -0.3, 0.306, -0.898, 192.0, 0.0, 0.0, 0.0, 0.0, 0.0, 0.0, 0.0, 0.0, 0.0, 1.677706475435446E9, 0.0, 2023-03-01 13:34:35.435
117.0, 28212.237741021843, 16891.794430231384, 0.0, -187500.02235174447, 0.0, 0.0, 0.0, -187500.02235174447, -0.3, 0.306, -0.898, 192.0, 0.0, 0.0, 0.0, 0.0, 0.0, 0.0, 0.0, 0.0, 0.0, 1.677706475442678E9, 0.0, 2023-03-01 13:34:35.442
118.0, 28227.97336911838, 16911.575724074333, 0.0, -187500.02235174447, 0.0, 0.0, 0.0, -187500.02235174447, -0.3, 0.306, -0.898, 192.0, 0.0, 0.0, 0.0, 0.0, 0.0, 0.0, 0.0, 0.0, 0.0, 1.677706475442693E9, 0.0, 2023-03-01 13:34:35.442
119.0, 28206.02395606327, 16872.080191621804, 0.0, -187500.02235174447, 0.0, 0.0, 0.0, -187500.02235174447, -0.302, 0.31, -0.892, 192.0, 246.0, 144.0, 9.0, 176.0, 228.0, 32.0, 0.0, 0.0, 0.0, 1.677706475450039E9, 0.0, 2023-03-01 13:34:35.450
120.0, 28185.795627331216, 16842.86646161872, 0.0, -187500.02235174447, 0.0, 0.0, 0.0, -187500.02235174447, -0.302, 0.31, -0.892, 192.0, 0.0, 0.0, 0.0, 0.0, 0.0, 0.0, 0.0, 0.0, 0.0, 1.677706475450054E9, 0.0, 2023-03-01 13:34:35.450
121.0, 28202.447676950418, 16879.38921205869, 0.0, -187500.02235174447, 0.0, 0.0, 0.0, -187500.02235174447, -0.302, 0.31, -0.892, 192.0, 0.0, 0.0, 0.0, 0.0, 0.0, 0.0, 0.0, 0.0, 0.0, 1.677706475457962E9, 0.0, 2023-03-01 13:34:35.457
122.0, 28225.805249906214, 16913.25210490848, 0.0, -187500.02235174447, 0.0, 0.0, 0.0, -187500.02235174447, -0.302, 0.31, -0.892, 192.0, 0.0, 0.0, 0.0, 0.0, 0.0, 0.0, 0.0, 0.0, 0.0, 1.677706475457974E9, 0.0, 2023-03-01 13:34:35.457
123.0, 28213.57884568916, 16880.797371959376, 0.0, -187500.02235174447, 0.0, 0.0, 0.0, -187500.02235174447, -0.302, 0.31, -0.892, 192.0, 0.0, 0.0, 0.0, 0.0, 0.0, 0.0, 0.0, 0.0, 0.0, 1.677706475465134E9, 0.0, 2023-03-01 13:34:35.465
124.0, 28185.23683371983, 16840.34071449527, 0.0, -187500.02235174447, 0.0, 0.0, 0.0, -187500.02235174447, -0.302, 0.31, -0.892, 192.0, 0.0, 0.0, 0.0, 0.0, 0.0, 0.0, 0.0, 0.0, 0.0, 1.677706475465143E9, 0.0, 2023-03-01 13:34:35.465
125.0, 28192.970537301368, 16869.3309270538, 0.0, -187500.02235174447, 0.0, 0.0, 0.0, -187500.02235174447, -0.302, 0.31, -0.892, 192.0, 0.0, 0.0, 0.0, 0.0, 0.0, 0.0, 0.0, 0.0, 0.0, 1.677706475471502E9, 0.0, 2023-03-01 13:34:35.471
126.0, 28220.865514381592, 16909.653474051174, 0.0, -187500.02235174447, 0.0, 0.0, 0.0, -187500.02235174447, -0.302, 0.31, -0.892, 192.0, 0.0, 0.0, 0.0, 0.0, 0.0, 0.0, 0.0, 0.0, 0.0, 1.677706475479763E9, 0.0, 2023-03-01 13:34:35.479
127.0, 28217.1104213131, 16888.06168890735, 0.0, -187500.02235174447, 0.0, 0.0, 0.0, -187500.02235174447, -0.302, 0.31, -0.892, 192.0, 0.0, 0.0, 0.0, 0.0, 0.0, 0.0, 0.0, 0.0, 0.0, 1.677706475479782E9, 0.0, 2023-03-01 13:34:35.479
128.0, 28191.38356344504, 16844.09580756376, 0.0, -187500.02235174447, 0.0, 0.0, 0.0, -187500.02235174447, -0.302, 0.31, -0.892, 192.0, 0.0, 0.0, 0.0, 0.0, 0.0, 0.0, 0.0, 0.0, 0.0, 1.677706475487669E9, 0.0, 2023-03-01 13:34:35.487
129.0, 28195.764505358282, 16862.15601708365, 0.0, -187500.02235174447, 0.0, 0.0, 0.0, -187500.02235174447, -0.302, 0.312, -0.9, 192.0, 246.0, 144.0, 9.0, 192.0, 227.0, 224.0, 0.0, 0.0, 0.0, 1.677706475487684E9, 0.0, 2023-03-01 13:34:35.487
130.0, 28225.514677228293, 16909.541715328898, 0.0, -187500.02235174447, 0.0, 0.0, 0.0, -187500.02235174447, -0.302, 0.312, -0.9, 192.0, 0.0, 0.0, 0.0, 0.0, 0.0, 0.0, 0.0, 0.0, 0.0, 1.677706475494877E9, 0.0, 2023-03-01 13:34:35.494
131.0, 28215.67990966796, 16896.577703544823, 0.0, -187500.02235174447, 0.0, 0.0, 0.0, -187500.02235174447, -0.302, 0.312, -0.9, 192.0, 0.0, 0.0, 0.0, 0.0, 0.0, 0.0, 0.0, 0.0, 0.0, 1.677706475494889E9, 0.0, 2023-03-01 13:34:35.494
132.0, 28189.662479121984, 16850.3766477557, 0.0, -187500.02235174447, 0.0, 0.0, 0.0, -187500.02235174447, -0.302, 0.312, -0.9, 192.0, 0.0, 0.0, 0.0, 0.0, 0.0, 0.0, 0.0, 0.0, 0.0, 1.677706475502284E9, 0.0, 2023-03-01 13:34:35.502
133.0, 28187.226138976355, 16858.780903670897, 0.0, -187500.02235174447, 0.0, 0.0, 0.0, -187500.02235174447, -0.302, 0.312, -0.9, 192.0, 0.0, 0.0, 0.0, 0.0, 0.0, 0.0, 0.0, 0.0, 0.0, 1.677706475502295E9, 0.0, 2023-03-01 13:34:35.502
134.0, 28211.29896775472, 16911.01693046295, 0.0, -187500.02235174447, 0.0, 0.0, 0.0, -187500.02235174447, -0.302, 0.312, -0.9, 192.0, 0.0, 0.0, 0.0, 0.0, 0.0, 0.0, 0.0, 0.0, 0.0, 1.677706475510354E9, 0.0, 2023-03-01 13:34:35.510
135.0, 28218.026842835767, 16910.01110196246, 0.0, -187500.02235174447, 0.0, 0.0, 0.0, -187500.02235174447, -0.302, 0.312, -0.9, 192.0, 0.0, 0.0, 0.0, 0.0, 0.0, 0.0, 0.0, 0.0, 0.0, 1.677706475510376E9, 0.0, 2023-03-01 13:34:35.510
136.0, 28201.553607172205, 16860.323174038313, 0.0, -187500.02235174447, 0.0, 0.0, 0.0, -187500.02235174447, -0.302, 0.312, -0.9, 192.0, 0.0, 0.0, 0.0, 0.0, 0.0, 0.0, 0.0, 0.0, 0.0, 1.67770647551834E9, 0.0, 2023-03-01 13:34:35.518
137.0, 28191.316508211676, 16854.08703733528, 0.0, -187500.02235174447, 0.0, 0.0, 0.0, -187500.02235174447, -0.302, 0.312, -0.9, 192.0, 0.0, 0.0, 0.0, 0.0, 0.0, 0.0, 0.0, 0.0, 0.0, 1.677706475518358E9, 0.0, 2023-03-01 13:34:35.518
138.0, 28214.62937767856, 16905.518401326943, 0.0, -187500.02235174447, 0.0, 0.0, 0.0, -187500.02235174447, -0.302, 0.312, -0.9, 192.0, 0.0, 0.0, 0.0, 0.0, 0.0, 0.0, 0.0, 0.0, 0.0, 1.677706475524936E9, 0.0, 2023-03-01 13:34:35.524
139.0, 28225.626435950573, 16918.169488688647, 0.0, -187500.02235174447, 0.0, 0.0, 0.0, -187500.02235174447, -0.302, 0.312, -0.9, 192.0, 0.0, 0.0, 0.0, 0.0, 0.0, 0.0, 0.0, 0.0, 0.0, 1.67770647552495E9, 0.0, 2023-03-01 13:34:35.524
140.0, 28207.25330200831, 16874.04714513387, 0.0, -187500.02235174447, 0.0, 0.0, 0.0, -187500.02235174447, -0.3, 0.308, -0.896, 192.0, 246.0, 160.0, 9.0, 160.0, 228.0, 0.0, 0.0, 0.0, 0.0, 1.677706475531901E9, 0.0, 2023-03-01 13:34:35.531
141.0, 28196.323298969663, 16854.131740824192, 0.0, -187500.02235174447, 0.0, 0.0, 0.0, -187500.02235174447, -0.3, 0.308, -0.896, 192.0, 0.0, 0.0, 0.0, 0.0, 0.0, 0.0, 0.0, 0.0, 0.0, 1.677706475539952E9, 0.0, 2023-03-01 13:34:35.539
142.0, 28216.64103467954, 16895.705985511064, 0.0, -187500.02235174447, 0.0, 0.0, 0.0, -187500.02235174447, -0.3, 0.308, -0.896, 192.0, 0.0, 0.0, 0.0, 0.0, 0.0, 0.0, 0.0, 0.0, 0.0, 1.677706475540006E9, 0.0, 2023-03-01 13:34:35.540
143.0, 28224.508848727804, 16917.521288099444, 0.0, -187500.02235174447, 0.0, 0.0, 0.0, -187500.02235174447, -0.3, 0.308, -0.896, 192.0, 0.0, 0.0, 0.0, 0.0, 0.0, 0.0, 0.0, 0.0, 0.0, 1.67770647554784E9, 0.0, 2023-03-01 13:34:35.547
144.0, 28205.845142107624, 16874.49418002298, 0.0, -187500.02235174447, 0.0, 0.0, 0.0, -187500.02235174447, -0.3, 0.308, -0.896, 192.0, 0.0, 0.0, 0.0, 0.0, 0.0, 0.0, 0.0, 0.0, 0.0, 1.677706475547851E9, 0.0, 2023-03-01 13:34:35.547
145.0, 28188.96957504387, 16842.28531626288, 0.0, -187500.02235174447, 0.0, 0.0, 0.0, -187500.02235174447, -0.3, 0.308, -0.896, 192.0, 0.0, 0.0, 0.0, 0.0, 0.0, 0.0, 0.0, 0.0, 0.0, 1.677706475554542E9, 0.0, 2023-03-01 13:34:35.554
146.0, 28202.559435672694, 16881.5349795264, 0.0, -187500.02235174447, 0.0, 0.0, 0.0, -187500.02235174447, -0.3, 0.308, -0.896, 192.0, 0.0, 0.0, 0.0, 0.0, 0.0, 0.0, 0.0, 0.0, 0.0, 1.677706475554565E9, 0.0, 2023-03-01 13:34:35.554
147.0, 28225.022938850278, 16919.421186378146, 0.0, -187500.02235174447, 0.0, 0.0, 0.0, -187500.02235174447, -0.3, 0.308, -0.896, 192.0, 0.0, 0.0, 0.0, 0.0, 0.0, 0.0, 0.0, 0.0, 0.0, 1.677706475562582E9, 0.0, 2023-03-01 13:34:35.562
148.0, 28216.10459281261, 16889.223979619026, 0.0, -187500.02235174447, 0.0, 0.0, 0.0, -187500.02235174447, -0.3, 0.308, -0.896, 192.0, 0.0, 0.0, 0.0, 0.0, 0.0, 0.0, 0.0, 0.0, 0.0, 1.6777064755626E9, 0.0, 2023-03-01 13:34:35.562
149.0, 28193.797551846215, 16848.230880287992, 0.0, -187500.02235174447, 0.0, 0.0, 0.0, -187500.02235174447, -0.3, 0.308, -0.896, 192.0, 0.0, 0.0, 0.0, 0.0, 0.0, 0.0, 0.0, 0.0, 0.0, 1.677706475570636E9, 0.0, 2023-03-01 13:34:35.570
150.0, 28204.459333951396, 16878.316328324836, 0.0, -187500.02235174447, 0.0, 0.0, 0.0, -187500.02235174447, -0.3, 0.31, -0.89, 192.0, 246.0, 160.0, 9.0, 176.0, 228.0, 48.0, 0.0, 0.0, 0.0, 1.677706475570651E9, 0.0, 2023-03-01 13:34:35.570
151.0, 28231.661406953506, 16925.50086086999, 0.0, -187500.02235174447, 0.0, 0.0, 0.0, -187500.02235174447, -0.3, 0.31, -0.89, 192.0, 0.0, 0.0, 0.0, 0.0, 0.0, 0.0, 0.0, 0.0, 0.0, 1.677706475577713E9, 0.0, 2023-03-01 13:34:35.577
152.0, 28232.555476731715, 16906.993616460994, 0.0, -187500.02235174447, 0.0, 0.0, 0.0, -187500.02235174447, -0.3, 0.31, -0.89, 192.0, 0.0, 0.0, 0.0, 0.0, 0.0, 0.0, 0.0, 0.0, 0.0, 1.677706475577724E9, 0.0, 2023-03-01 13:34:35.577
153.0, 28216.30575851271, 16862.245424061468, 0.0, -187500.02235174447, 0.0, 0.0, 0.0, -187500.02235174447, -0.3, 0.31, -0.89, 192.0, 0.0, 0.0, 0.0, 0.0, 0.0, 0.0, 0.0, 0.0, 0.0, 1.677706475585674E9, 0.0, 2023-03-01 13:34:35.585
154.0, 28213.645900922525, 16878.00340390246, 0.0, -187500.02235174447, 0.0, 0.0, 0.0, -187500.02235174447, -0.3, 0.31, -0.89, 192.0, 0.0, 0.0, 0.0, 0.0, 0.0, 0.0, 0.0, 0.0, 0.0, 1.677706475585683E9, 0.0, 2023-03-01 13:34:35.585
155.0, 28241.183250091464, 16929.434767894123, 0.0, -187500.02235174447, 0.0, 0.0, 0.0, -187500.02235174447, -0.3, 0.31, -0.89, 192.0, 0.0, 0.0, 0.0, 0.0, 0.0, 0.0, 0.0, 0.0, 0.0, 1.677706475592299E9, 0.0, 2023-03-01 13:34:35.592
156.0, 28240.959732646912, 16915.4425758651, 0.0, -187500.02235174447, 0.0, 0.0, 0.0, -187500.02235174447, -0.3, 0.31, -0.89, 192.0, 0.0, 0.0, 0.0, 0.0, 0.0, 0.0, 0.0, 0.0, 0.0, 1.677706475600252E9, 0.0, 2023-03-01 13:34:35.600
157.0, 28209.68964215394, 16867.207511330547, 0.0, -187500.02235174447, 0.0, 0.0, 0.0, -187500.02235174447, -0.3, 0.31, -0.89, 192.0, 0.0, 0.0, 0.0, 0.0, 0.0, 0.0, 0.0, 0.0, 0.0, 1.677706475600268E9, 0.0, 2023-03-01 13:34:35.600
158.0, 28211.008395076802, 16880.506799281455, 0.0, -187500.02235174447, 0.0, 0.0, 0.0, -187500.02235174447, -0.3, 0.31, -0.89, 192.0, 0.0, 0.0, 0.0, 0.0, 0.0, 0.0, 0.0, 0.0, 0.0, 1.677706475607372E9, 0.0, 2023-03-01 13:34:35.607
159.0, 28258.617610766603, 16947.942012303116, 0.0, -187500.02235174447, 0.0, 0.0, 0.0, -187500.02235174447, -0.3, 0.31, -0.89, 192.0, 0.0, 0.0, 0.0, 0.0, 0.0, 0.0, 0.0, 0.0, 0.0, 1.677706475607422E9, 0.0, 2023-03-01 13:34:35.607
160.0, 28258.081168899676, 16937.056712753383, 0.0, -187500.02235174447, 0.0, 0.0, 0.0, -187500.02235174447, -0.306, 0.312, -0.894, 192.0, 246.0, 112.0, 9.0, 192.0, 228.0, 16.0, 0.0, 0.0, 0.0, 1.677706475614839E9, 0.0, 2023-03-01 13:34:35.614
161.0, 28210.784877632246, 16865.79935142986, 0.0, -187500.02235174447, 0.0, 0.0, 0.0, -187500.02235174447, -0.306, 0.312, -0.894, 192.0, 0.0, 0.0, 0.0, 0.0, 0.0, 0.0, 0.0, 0.0, 0.0, 1.677706475614849E9, 0.0, 2023-03-01 13:34:35.614
162.0, 28198.089086781634, 16853.818816401817, 0.0, -187500.02235174447, 0.0, 0.0, 0.0, -187500.02235174447, -0.306, 0.312, -0.894, 192.0, 0.0, 0.0, 0.0, 0.0, 0.0, 0.0, 0.0, 0.0, 0.0, 1.677706475622778E9, 0.0, 2023-03-01 13:34:35.622
163.0, 28232.44371800944, 16908.558238572867, 0.0, -187500.02235174447, 0.0, 0.0, 0.0, -187500.02235174447, -0.306, 0.312, -0.894, 192.0, 0.0, 0.0, 0.0, 0.0, 0.0, 0.0, 0.0, 0.0, 0.0, 1.67770647562279E9, 0.0, 2023-03-01 13:34:35.622
164.0, 28251.286238585264, 16922.192802690603, 0.0, -187500.02235174447, 0.0, 0.0, 0.0, -187500.02235174447, -0.306, 0.312, -0.894, 192.0, 0.0, 0.0, 0.0, 0.0, 0.0, 0.0, 0.0, 0.0, 0.0, 1.677706475630796E9, 0.0, 2023-03-01 13:34:35.630
165.0, 28231.616703464595, 16869.375630542712, 0.0, -187500.02235174447, 0.0, 0.0, 0.0, -187500.02235174447, -0.306, 0.312, -0.894, 192.0, 0.0, 0.0, 0.0, 0.0, 0.0, 0.0, 0.0, 0.0, 0.0, 1.677706475630805E9, 0.0, 2023-03-01 13:34:35.630
166.0, 28217.132773057554, 16839.983086583983, 0.0, -187500.02235174447, 0.0, 0.0, 0.0, -187500.02235174447, -0.306, 0.312, -0.894, 192.0, 0.0, 0.0, 0.0, 0.0, 0.0, 0.0, 0.0, 0.0, 0.0, 1.677706475637503E9, 0.0, 2023-03-01 13:34:35.637
167.0, 28234.097747099135, 16877.28814807989, 0.0, -187500.02235174447, 0.0, 0.0, 0.0, -187500.02235174447, -0.306, 0.312, -0.894, 192.0, 0.0, 0.0, 0.0, 0.0, 0.0, 0.0, 0.0, 0.0, 0.0, 1.677706475637524E9, 0.0, 2023-03-01 13:34:35.637
168.0, 28248.849898439636, 16897.225904134026, 0.0, -187500.02235174447, 0.0, 0.0, 0.0, -187500.02235174447, -0.306, 0.312, -0.894, 192.0, 0.0, 0.0, 0.0, 0.0, 0.0, 0.0, 0.0, 0.0, 0.0, 1.677706475645978E9, 0.0, 2023-03-01 13:34:35.645
169.0, 28237.91989540099, 16858.736200181986, 0.0, -187500.02235174447, 0.0, 0.0, 0.0, -187500.02235174447, -0.306, 0.312, -0.894, 192.0, 0.0, 0.0, 0.0, 0.0, 0.0, 0.0, 0.0, 0.0, 0.0, 1.677706475645992E9, 0.0, 2023-03-01 13:34:35.645
170.0, 28224.173572560976, 16828.203717256038, 0.0, -187500.02235174447, 0.0, 0.0, 0.0, -187500.02235174447, -0.302, 0.314, -0.898, 192.0, 246.0, 144.0, 9.0, 208.0, 227.0, 240.0, 0.0, 0.0, 0.0, 1.677706475652546E9, 0.0, 2023-03-01 13:34:35.652
171.0, 28234.142450588042, 16863.58652872879, 0.0, -187500.02235174447, 0.0, 0.0, 0.0, -187500.02235174447, -0.302, 0.314, -0.898, 192.0, 0.0, 0.0, 0.0, 0.0, 0.0, 0.0, 0.0, 0.0, 0.0, 1.677706475660715E9, 0.0, 2023-03-01 13:34:35.660
172.0, 28253.00732290832, 16899.81870649084, 0.0, -187500.02235174447, 0.0, 0.0, 0.0, -187500.02235174447, -0.302, 0.314, -0.898, 192.0, 0.0, 0.0, 0.0, 0.0, 0.0, 0.0, 0.0, 0.0, 0.0, 1.677706475660726E9, 0.0, 2023-03-01 13:34:35.660
173.0, 28247.955828661423, 16873.890682922683, 0.0, -187500.02235174447, 0.0, 0.0, 0.0, -187500.02235174447, -0.302, 0.314, -0.898, 192.0, 0.0, 0.0, 0.0, 0.0, 0.0, 0.0, 0.0, 0.0, 0.0, 1.677706475667045E9, 0.0, 2023-03-01 13:34:35.667
174.0, 28224.128869072065, 16831.802348113342, 0.0, -187500.02235174447, 0.0, 0.0, 0.0, -187500.02235174447, -0.302, 0.314, -0.898, 192.0, 0.0, 0.0, 0.0, 0.0, 0.0, 0.0, 0.0, 0.0, 0.0, 1.677706475667055E9, 0.0, 2023-03-01 13:34:35.667
175.0, 28232.466069753897, 16858.713848437532, 0.0, -187500.02235174447, 0.0, 0.0, 0.0, -187500.02235174447, -0.302, 0.314, -0.898, 192.0, 0.0, 0.0, 0.0, 0.0, 0.0, 0.0, 0.0, 0.0, 0.0, 1.677706475675103E9, 0.0, 2023-03-01 13:34:35.675
176.0, 28261.83626196817, 16905.451346093578, 0.0, -187500.02235174447, 0.0, 0.0, 0.0, -187500.02235174447, -0.302, 0.314, -0.898, 192.0, 0.0, 0.0, 0.0, 0.0, 0.0, 0.0, 0.0, 0.0, 0.0, 1.677706475675114E9, 0.0, 2023-03-01 13:34:35.675
177.0, 28261.83626196817, 16886.944101684585, 0.0, -187500.02235174447, 0.0, 0.0, 0.0, -187500.02235174447, -0.302, 0.314, -0.898, 192.0, 0.0, 0.0, 0.0, 0.0, 0.0, 0.0, 0.0, 0.0, 0.0, 1.677706475683127E9, 0.0, 2023-03-01 13:34:35.683
178.0, 28231.527296486773, 16839.04431331686, 0.0, -187500.02235174447, 0.0, 0.0, 0.0, -187500.02235174447, -0.302, 0.314, -0.898, 192.0, 0.0, 0.0, 0.0, 0.0, 0.0, 0.0, 0.0, 0.0, 0.0, 1.677706475683142E9, 0.0, 2023-03-01 13:34:35.683
179.0, 28228.666273196493, 16855.4281420026, 0.0, -187500.02235174447, 0.0, 0.0, 0.0, -187500.02235174447, -0.302, 0.314, -0.898, 192.0, 0.0, 0.0, 0.0, 0.0, 0.0, 0.0, 0.0, 0.0, 0.0, 1.677706475690203E9, 0.0, 2023-03-01 13:34:35.690
180.0, 28252.113253130112, 16904.24435189299, 0.0, -187500.02235174447, 0.0, 0.0, 0.0, -187500.02235174447, -0.3, 0.308, -0.892, 192.0, 246.0, 160.0, 9.0, 160.0, 228.0, 32.0, 0.0, 0.0, 0.0, 1.677706475690218E9, 0.0, 2023-03-01 13:34:35.690
181.0, 28250.34746531814, 16889.782773230407, 0.0, -187500.02235174447, 0.0, 0.0, 0.0, -187500.02235174447, -0.3, 0.308, -0.892, 192.0, 0.0, 0.0, 0.0, 0.0, 0.0, 0.0, 0.0, 0.0, 0.0, 1.677706475697823E9, 0.0, 2023-03-01 13:34:35.697
182.0, 28228.889790641046, 16840.251307517447, 0.0, -187500.02235174447, 0.0, 0.0, 0.0, -187500.02235174447, -0.3, 0.308, -0.892, 192.0, 0.0, 0.0, 0.0, 0.0, 0.0, 0.0, 0.0, 0.0, 0.0, 1.677706475697839E9, 0.0, 2023-03-01 13:34:35.697
183.0, 28227.325168529176, 16838.843147616764, 0.0, -187500.02235174447, 0.0, 0.0, 0.0, -187500.02235174447, -0.3, 0.308, -0.892, 192.0, 0.0, 0.0, 0.0, 0.0, 0.0, 0.0, 0.0, 0.0, 0.0, 1.677706475705771E9, 0.0, 2023-03-01 13:34:35.705
184.0, 28251.129776374077, 16890.073345908328, 0.0, -187500.02235174447, 0.0, 0.0, 0.0, -187500.02235174447, -0.3, 0.308, -0.892, 192.0, 0.0, 0.0, 0.0, 0.0, 0.0, 0.0, 0.0, 0.0, 0.0, 1.677706475705787E9, 0.0, 2023-03-01 13:34:35.705
185.0, 28257.991761921858, 16891.928540698118, 0.0, -187500.02235174447, 0.0, 0.0, 0.0, -187500.02235174447, -0.3, 0.308, -0.892, 192.0, 0.0, 0.0, 0.0, 0.0, 0.0, 0.0, 0.0, 0.0, 0.0, 1.677706475712822E9, 0.0, 2023-03-01 13:34:35.712
186.0, 28235.707072699915, 16845.436912231078, 0.0, -187500.02235174447, 0.0, 0.0, 0.0, -187500.02235174447, -0.3, 0.308, -0.892, 192.0, 0.0, 0.0, 0.0, 0.0, 0.0, 0.0, 0.0, 0.0, 0.0, 1.677706475712834E9, 0.0, 2023-03-01 13:34:35.712
187.0, 28225.469973739386, 16834.79748187035, 0.0, -187500.02235174447, 0.0, 0.0, 0.0, -187500.02235174447, -0.3, 0.308, -0.892, 192.0, 0.0, 0.0, 0.0, 0.0, 0.0, 0.0, 0.0, 0.0, 0.0, 1.677706475719954E9, 0.0, 2023-03-01 13:34:35.719
188.0, 28249.274581584286, 16885.647700506175, 0.0, -187500.02235174447, 0.0, 0.0, 0.0, -187500.02235174447, -0.3, 0.308, -0.892, 192.0, 0.0, 0.0, 0.0, 0.0, 0.0, 0.0, 0.0, 0.0, 0.0, 1.67770647572736E9, 0.0, 2023-03-01 13:34:35.727
189.0, 28270.68755277247, 16908.312369383857, 0.0, -187500.02235174447, 0.0, 0.0, 0.0, -187500.02235174447, -0.3, 0.308, -0.892, 192.0, 0.0, 0.0, 0.0, 0.0, 0.0, 0.0, 0.0, 0.0, 0.0, 1.677706475727378E9, 0.0, 2023-03-01 13:34:35.727
190.0, 28252.336770574664, 16867.654546219652, 0.0, -187500.02235174447, 0.0, 0.0, 0.0, -187500.02235174447, -0.302, 0.308, -0.9, 192.0, 246.0, 144.0, 9.0, 160.0, 227.0, 224.0, 0.0, 0.0, 0.0, 1.677706475735978E9, 0.0, 2023-03-01 13:34:35.735
191.0, 28233.807174421214, 16841.212432529024, 0.0, -187500.02235174447, 0.0, 0.0, 0.0, -187500.02235174447, -0.302, 0.308, -0.9, 192.0, 0.0, 0.0, 0.0, 0.0, 0.0, 0.0, 0.0, 0.0, 0.0, 1.677706475736038E9, 0.0, 2023-03-01 13:34:35.736
192.0, 28255.77893922078, 16886.474715051023, 0.0, -187500.02235174447, 0.0, 0.0, 0.0, -187500.02235174447, -0.302, 0.308, -0.9, 192.0, 0.0, 0.0, 0.0, 0.0, 0.0, 0.0, 0.0, 0.0, 0.0, 1.677706475742699E9, 0.0, 2023-03-01 13:34:35.742
193.0, 28274.59910805215, 16912.62625606373, 0.0, -187500.02235174447, 0.0, 0.0, 0.0, -187500.02235174447, -0.302, 0.308, -0.9, 192.0, 0.0, 0.0, 0.0, 0.0, 0.0, 0.0, 0.0, 0.0, 0.0, 1.677706475742712E9, 0.0, 2023-03-01 13:34:35.742
194.0, 28260.316343345206, 16879.612729503242, 0.0, -187500.02235174447, 0.0, 0.0, 0.0, -187500.02235174447, -0.302, 0.308, -0.9, 192.0, 0.0, 0.0, 0.0, 0.0, 0.0, 0.0, 0.0, 0.0, 0.0, 1.677706475749984E9, 0.0, 2023-03-01 13:34:35.749
195.0, 28245.653598982528, 16850.28724077788, 0.0, -187500.02235174447, 0.0, 0.0, 0.0, -187500.02235174447, -0.302, 0.308, -0.9, 192.0, 0.0, 0.0, 0.0, 0.0, 0.0, 0.0, 0.0, 0.0, 0.0, 1.677706475749994E9, 0.0, 2023-03-01 13:34:35.749
196.0, 28256.717712487905, 16887.279377851413, 0.0, -187500.02235174447, 0.0, 0.0, 0.0, -187500.02235174447, -0.302, 0.308, -0.9, 192.0, 0.0, 0.0, 0.0, 0.0, 0.0, 0.0, 0.0, 0.0, 0.0, 1.677706475758021E9, 0.0, 2023-03-01 13:34:35.758
197.0, 28281.39403836656, 16925.50086086999, 0.0, -187500.02235174447, 0.0, 0.0, 0.0, -187500.02235174447, -0.302, 0.308, -0.9, 192.0, 0.0, 0.0, 0.0, 0.0, 0.0, 0.0, 0.0, 0.0, 0.0, 1.677706475758033E9, 0.0, 2023-03-01 13:34:35.758
198.0, 28275.157901663533, 16894.5883982883, 0.0, -187500.02235174447, 0.0, 0.0, 0.0, -187500.02235174447, -0.302, 0.308, -0.9, 192.0, 0.0, 0.0, 0.0, 0.0, 0.0, 0.0, 0.0, 0.0, 0.0, 1.677706475766114E9, 0.0, 2023-03-01 13:34:35.766
199.0, 28246.950000160934, 16849.929612866596, 0.0, -187500.02235174447, 0.0, 0.0, 0.0, -187500.02235174447, -0.302, 0.308, -0.9, 192.0, 0.0, 0.0, 0.0, 0.0, 0.0, 0.0, 0.0, 0.0, 0.0, 1.677706475766132E9, 0.0, 2023-03-01 13:34:35.766
200.0, 28248.894601928547, 16871.72256371052, 0.0, -187500.02235174447, 0.0, 0.0, 0.0, -187500.02235174447, -0.302, 0.308, -0.902, 192.0, 246.0, 144.0, 9.0, 160.0, 227.0, 208.0, 0.0, 0.0, 0.0, 1.677706475772732E9, 0.0, 2023-03-01 13:34:35.772
201.0, 28271.17929115049, 16916.470756110044, 0.0, -187500.02235174447, 0.0, 0.0, 0.0, -187500.02235174447, -0.302, 0.308, -0.902, 192.0, 0.0, 0.0, 0.0, 0.0, 0.0, 0.0, 0.0, 0.0, 0.0, 1.677706475772747E9, 0.0, 2023-03-01 13:34:35.772
202.0, 28268.050046926743, 16894.655453521664, 0.0, -187500.02235174447, 0.0, 0.0, 0.0, -187500.02235174447, -0.302, 0.308, -0.902, 192.0, 0.0, 0.0, 0.0, 0.0, 0.0, 0.0, 0.0, 0.0, 0.0, 1.67770647577977E9, 0.0, 2023-03-01 13:34:35.779
203.0, 28242.479651269874, 16841.413598229123, 0.0, -187500.02235174447, 0.0, 0.0, 0.0, -187500.02235174447, -0.302, 0.308, -0.902, 192.0, 0.0, 0.0, 0.0, 0.0, 0.0, 0.0, 0.0, 0.0, 0.0, 1.677706475787765E9, 0.0, 2023-03-01 13:34:35.787
204.0, 28240.959732646912, 16852.254194289948, 0.0, -187500.02235174447, 0.0, 0.0, 0.0, -187500.02235174447, -0.302, 0.308, -0.902, 192.0, 0.0, 0.0, 0.0, 0.0, 0.0, 0.0, 0.0, 0.0, 0.0, 1.677706475787777E9, 0.0, 2023-03-01 13:34:35.787
205.0, 28264.943154447457, 16905.361939115755, 0.0, -187500.02235174447, 0.0, 0.0, 0.0, -187500.02235174447, -0.302, 0.308, -0.902, 192.0, 0.0, 0.0, 0.0, 0.0, 0.0, 0.0, 0.0, 0.0, 0.0, 1.677706475795738E9, 0.0, 2023-03-01 13:34:35.795
206.0, 28260.897488701044, 16894.63310177721, 0.0, -187500.02235174447, 0.0, 0.0, 0.0, -187500.02235174447, -0.302, 0.308, -0.902, 192.0, 0.0, 0.0, 0.0, 0.0, 0.0, 0.0, 0.0, 0.0, 0.0, 1.677706475795748E9, 0.0, 2023-03-01 13:34:35.795
207.0, 28233.561305232204, 16843.71582790802, 0.0, -187500.02235174447, 0.0, 0.0, 0.0, -187500.02235174447, -0.302, 0.308, -0.902, 192.0, 0.0, 0.0, 0.0, 0.0, 0.0, 0.0, 0.0, 0.0, 0.0, 1.677706475802254E9, 0.0, 2023-03-01 13:34:35.802
208.0, 28231.124965086576, 16844.22991803049, 0.0, -187500.02235174447, 0.0, 0.0, 0.0, -187500.02235174447, -0.302, 0.308, -0.902, 192.0, 0.0, 0.0, 0.0, 0.0, 0.0, 0.0, 0.0, 0.0, 0.0, 1.677706475802274E9, 0.0, 2023-03-01 13:34:35.802
209.0, 28263.043256168756, 16899.572837301832, 0.0, -187500.02235174447, 0.0, 0.0, 0.0, -187500.02235174447, -0.302, 0.308, -0.902, 192.0, 0.0, 0.0, 0.0, 0.0, 0.0, 0.0, 0.0, 0.0, 0.0, 1.677706475810833E9, 0.0, 2023-03-01 13:34:35.810
210.0, 28272.140416162067, 16908.40177636168, 0.0, -187500.02235174447, 0.0, 0.0, 0.0, -187500.02235174447, -0.304, 0.308, -0.9, 192.0, 246.0, 128.0, 9.0, 160.0, 227.0, 224.0, 0.0, 0.0, 0.0, 1.67770647581085E9, 0.0, 2023-03-01 13:34:35.810
211.0, 28239.328055301674, 16850.95779311154, 0.0, -187500.02235174447, 0.0, 0.0, 0.0, -187500.02235174447, -0.304, 0.308, -0.9, 192.0, 0.0, 0.0, 0.0, 0.0, 0.0, 0.0, 0.0, 0.0, 0.0, 1.677706475818319E9, 0.0, 2023-03-01 13:34:35.818
212.0, 28216.752793401814, 16826.81790909981, 0.0, -187500.02235174447, 0.0, 0.0, 0.0, -187500.02235174447, -0.304, 0.308, -0.9, 192.0, 0.0, 0.0, 0.0, 0.0, 0.0, 0.0, 0.0, 0.0, 0.0, 1.677706475818333E9, 0.0, 2023-03-01 13:34:35.818
213.0, 28245.363026304607, 16879.00923240295, 0.0, -187500.02235174447, 0.0, 0.0, 0.0, -187500.02235174447, -0.304, 0.308, -0.9, 192.0, 0.0, 0.0, 0.0, 0.0, 0.0, 0.0, 0.0, 0.0, 0.0, 1.677706475825415E9, 0.0, 2023-03-01 13:34:35.825
214.0, 28257.880003199578, 16893.649625021175, 0.0, -187500.02235174447, 0.0, 0.0, 0.0, -187500.02235174447, -0.304, 0.308, -0.9, 192.0, 0.0, 0.0, 0.0, 0.0, 0.0, 0.0, 0.0, 0.0, 0.0, 1.677706475825426E9, 0.0, 2023-03-01 13:34:35.825
215.0, 28229.44858425243, 16844.878118619697, 0.0, -187500.02235174447, 0.0, 0.0, 0.0, -187500.02235174447, -0.304, 0.308, -0.9, 192.0, 0.0, 0.0, 0.0, 0.0, 0.0, 0.0, 0.0, 0.0, 0.0, 1.67770647583288E9, 0.0, 2023-03-01 13:34:35.832
216.0, 28208.88497935355, 16817.541935150854, 0.0, -187500.02235174447, 0.0, 0.0, 0.0, -187500.02235174447, -0.304, 0.308, -0.9, 192.0, 0.0, 0.0, 0.0, 0.0, 0.0, 0.0, 0.0, 0.0, 0.0, 1.677706475832893E9, 0.0, 2023-03-01 13:34:35.832
217.0, 28226.609912706605, 16858.19975831506, 0.0, -187500.02235174447, 0.0, 0.0, 0.0, -187500.02235174447, -0.304, 0.308, -0.9, 192.0, 0.0, 0.0, 0.0, 0.0, 0.0, 0.0, 0.0, 0.0, 0.0, 1.677706475839814E9, 0.0, 2023-03-01 13:34:35.839
218.0, 28243.910162915014, 16886.452363306566, 0.0, -187500.02235174447, 0.0, 0.0, 0.0, -187500.02235174447, -0.304, 0.308, -0.9, 192.0, 0.0, 0.0, 0.0, 0.0, 0.0, 0.0, 0.0, 0.0, 0.0, 1.677706475847936E9, 0.0, 2023-03-01 13:34:35.847
219.0, 28232.82369766518, 16854.10938907974, 0.0, -187500.02235174447, 0.0, 0.0, 0.0, -187500.02235174447, -0.304, 0.308, -0.9, 192.0, 0.0, 0.0, 0.0, 0.0, 0.0, 0.0, 0.0, 0.0, 0.0, 1.677706475847954E9, 0.0, 2023-03-01 13:34:35.847
220.0, 28217.378642246564, 16822.99576079795, 0.0, -187500.02235174447, 0.0, 0.0, 0.0, -187500.02235174447, -0.304, 0.308, -0.9, 192.0, 0.0, 0.0, 0.0, 0.0, 0.0, 0.0, 0.0, 0.0, 0.0, 1.677706475855016E9, 0.0, 2023-03-01 13:34:35.855
221.0, 28232.980159876366, 16852.030676845396, 0.0, -187500.02235174447, 0.0, 0.0, 0.0, -187500.02235174447, -0.304, 0.308, -0.898, 192.0, 246.0, 128.0, 9.0, 160.0, 227.0, 240.0, 0.0, 0.0, 0.0, 1.677706475855031E9, 0.0, 2023-03-01 13:34:35.855
222.0, 28259.39992182254, 16897.829401234318, 0.0, -187500.02235174447, 0.0, 0.0, 0.0, -187500.02235174447, -0.304, 0.308, -0.898, 192.0, 0.0, 0.0, 0.0, 0.0, 0.0, 0.0, 0.0, 0.0, 0.0, 1.677706475862627E9, 0.0, 2023-03-01 13:34:35.862
223.0, 28252.02384615229, 16876.081153879306, 0.0, -187500.02235174447, 0.0, 0.0, 0.0, -187500.02235174447, -0.304, 0.308, -0.898, 192.0, 0.0, 0.0, 0.0, 0.0, 0.0, 0.0, 0.0, 0.0, 0.0, 1.677706475862644E9, 0.0, 2023-03-01 13:34:35.862
224.0, 28229.672101696982, 16828.85191784524, 0.0, -187500.02235174447, 0.0, 0.0, 0.0, -187500.02235174447, -0.304, 0.308, -0.898, 192.0, 0.0, 0.0, 0.0, 0.0, 0.0, 0.0, 0.0, 0.0, 0.0, 1.67770647587067E9, 0.0, 2023-03-01 13:34:35.870
225.0, 28231.281427297763, 16851.4271797451, 0.0, -187500.02235174447, 0.0, 0.0, 0.0, -187500.02235174447, -0.304, 0.308, -0.898, 192.0, 0.0, 0.0, 0.0, 0.0, 0.0, 0.0, 0.0, 0.0, 0.0, 1.677706475870686E9, 0.0, 2023-03-01 13:34:35.870
226.0, 28258.952886933435, 16901.472735580533, 0.0, -187500.02235174447, 0.0, 0.0, 0.0, -187500.02235174447, -0.304, 0.308, -0.898, 192.0, 0.0, 0.0, 0.0, 0.0, 0.0, 0.0, 0.0, 0.0, 0.0, 1.677706475878505E9, 0.0, 2023-03-01 13:34:35.878
227.0, 28253.968447919902, 16882.25023534897, 0.0, -187500.02235174447, 0.0, 0.0, 0.0, -187500.02235174447, -0.304, 0.308, -0.898, 192.0, 0.0, 0.0, 0.0, 0.0, 0.0, 0.0, 0.0, 0.0, 0.0, 1.677706475878514E9, 0.0, 2023-03-01 13:34:35.878
228.0, 28228.845087152135, 16830.95298182404, 0.0, -187500.02235174447, 0.0, 0.0, 0.0, -187500.02235174447, -0.304, 0.308, -0.898, 192.0, 0.0, 0.0, 0.0, 0.0, 0.0, 0.0, 0.0, 0.0, 0.0, 1.677706475885134E9, 0.0, 2023-03-01 13:34:35.885
229.0, 28225.29115978374, 16839.692513906066, 0.0, -187500.02235174447, 0.0, 0.0, 0.0, -187500.02235174447, -0.304, 0.308, -0.898, 192.0, 0.0, 0.0, 0.0, 0.0, 0.0, 0.0, 0.0, 0.0, 0.0, 1.677706475885153E9, 0.0, 2023-03-01 13:34:35.885
230.0, 28244.670122226493, 16890.520380797432, 0.0, -187500.02235174447, 0.0, 0.0, 0.0, -187500.02235174447, -0.304, 0.308, -0.898, 192.0, 0.0, 0.0, 0.0, 0.0, 0.0, 0.0, 0.0, 0.0, 0.0, 1.677706475893714E9, 0.0, 2023-03-01 13:34:35.893
231.0, 28250.056892640223, 16888.218151118537, 0.0, -187500.02235174447, 0.0, 0.0, 0.0, -187500.02235174447, -0.304, 0.304, -0.898, 192.0, 246.0, 128.0, 9.0, 128.0, 227.0, 240.0, 0.0, 0.0, 0.0, 1.677706475893731E9, 0.0, 2023-03-01 13:34:35.893
232.0, 28223.72653767187, 16837.703208649542, 0.0, -187500.02235174447, 0.0, 0.0, 0.0, -187500.02235174447, -0.304, 0.304, -0.898, 192.0, 0.0, 0.0, 0.0, 0.0, 0.0, 0.0, 0.0, 0.0, 0.0, 1.677706475900289E9, 0.0, 2023-03-01 13:34:35.900
233.0, 28217.937435857944, 16834.529260936888, 0.0, -187500.02235174447, 0.0, 0.0, 0.0, -187500.02235174447, -0.304, 0.304, -0.898, 192.0, 0.0, 0.0, 0.0, 0.0, 0.0, 0.0, 0.0, 0.0, 0.0, 1.677706475908364E9, 0.0, 2023-03-01 13:34:35.908
234.0, 28246.25709608282, 16889.782773230407, 0.0, -187500.02235174447, 0.0, 0.0, 0.0, -187500.02235174447, -0.304, 0.304, -0.898, 192.0, 0.0, 0.0, 0.0, 0.0, 0.0, 0.0, 0.0, 0.0, 0.0, 1.677706475908377E9, 0.0, 2023-03-01 13:34:35.908
235.0, 28254.437834553464, 16896.600055289276, 0.0, -187500.02235174447, 0.0, 0.0, 0.0, -187500.02235174447, -0.304, 0.304, -0.898, 192.0, 0.0, 0.0, 0.0, 0.0, 0.0, 0.0, 0.0, 0.0, 0.0, 1.677706475914816E9, 0.0, 2023-03-01 13:34:35.914
236.0, 28229.515639485795, 16847.94030761007, 0.0, -187500.02235174447, 0.0, 0.0, 0.0, -187500.02235174447, -0.304, 0.304, -0.898, 192.0, 0.0, 0.0, 0.0, 0.0, 0.0, 0.0, 0.0, 0.0, 0.0, 1.677706475914829E9, 0.0, 2023-03-01 13:34:35.914
237.0, 28217.222180035376, 16828.516641678412, 0.0, -187500.02235174447, 0.0, 0.0, 0.0, -187500.02235174447, -0.304, 0.304, -0.898, 192.0, 0.0, 0.0, 0.0, 0.0, 0.0, 0.0, 0.0, 0.0, 0.0, 1.677706475922849E9, 0.0, 2023-03-01 13:34:35.922
238.0, 28240.624456480084, 16877.265796335436, 0.0, -187500.02235174447, 0.0, 0.0, 0.0, -187500.02235174447, -0.304, 0.304, -0.898, 192.0, 0.0, 0.0, 0.0, 0.0, 0.0, 0.0, 0.0, 0.0, 0.0, 1.677706475922858E9, 0.0, 2023-03-01 13:34:35.922
239.0, 28260.808081723226, 16898.276436123426, 0.0, -187500.02235174447, 0.0, 0.0, 0.0, -187500.02235174447, -0.304, 0.304, -0.898, 192.0, 0.0, 0.0, 0.0, 0.0, 0.0, 0.0, 0.0, 0.0, 0.0, 1.677706475930808E9, 0.0, 2023-03-01 13:34:35.930
240.0, 28245.49713677134, 16855.629307702697, 0.0, -187500.02235174447, 0.0, 0.0, 0.0, -187500.02235174447, -0.304, 0.304, -0.898, 192.0, 0.0, 0.0, 0.0, 0.0, 0.0, 0.0, 0.0, 0.0, 0.0, 1.677706475930878E9, 0.0, 2023-03-01 13:34:35.930
241.0, 28225.425270250475, 16826.70615037753, 0.0, -187500.02235174447, 0.0, 0.0, 0.0, -187500.02235174447, -0.306, 0.308, -0.898, 192.0, 246.0, 112.0, 9.0, 160.0, 227.0, 240.0, 0.0, 0.0, 0.0, 1.677706475937409E9, 0.0, 2023-03-01 13:34:35.937
242.0, 28242.1667268475, 16865.307613051846, 0.0, -187500.02235174447, 0.0, 0.0, 0.0, -187500.02235174447, -0.306, 0.308, -0.898, 192.0, 0.0, 0.0, 0.0, 0.0, 0.0, 0.0, 0.0, 0.0, 0.0, 1.677706475937428E9, 0.0, 2023-03-01 13:34:35.937
243.0, 28261.67979975698, 16894.789563988397, 0.0, -187500.02235174447, 0.0, 0.0, 0.0, -187500.02235174447, -0.306, 0.308, -0.898, 192.0, 0.0, 0.0, 0.0, 0.0, 0.0, 0.0, 0.0, 0.0, 0.0, 1.677706475946006E9, 0.0, 2023-03-01 13:34:35.946
244.0, 28245.69830247144, 16860.323174038313, 0.0, -187500.02235174447, 0.0, 0.0, 0.0, -187500.02235174447, -0.306, 0.308, -0.898, 192.0, 0.0, 0.0, 0.0, 0.0, 0.0, 0.0, 0.0, 0.0, 0.0, 1.677706475946021E9, 0.0, 2023-03-01 13:34:35.946
245.0, 28223.838296394148, 16821.453490430533, 0.0, -187500.02235174447, 0.0, 0.0, 0.0, -187500.02235174447, -0.306, 0.308, -0.898, 192.0, 0.0, 0.0, 0.0, 0.0, 0.0, 0.0, 0.0, 0.0, 0.0, 1.67770647595352E9, 0.0, 2023-03-01 13:34:35.953
246.0, 28234.25420931032, 16849.99666809996, 0.0, -187500.02235174447, 0.0, 0.0, 0.0, -187500.02235174447, -0.306, 0.308, -0.898, 192.0, 0.0, 0.0, 0.0, 0.0, 0.0, 0.0, 0.0, 0.0, 0.0, 1.677706475953534E9, 0.0, 2023-03-01 13:34:35.953
247.0, 28249.028712395277, 16888.419316818632, 0.0, -187500.02235174447, 0.0, 0.0, 0.0, -187500.02235174447, -0.306, 0.308, -0.898, 192.0, 0.0, 0.0, 0.0, 0.0, 0.0, 0.0, 0.0, 0.0, 0.0, 1.677706475960618E9, 0.0, 2023-03-01 13:34:35.960
248.0, 28241.1161948581, 16865.084095607293, 0.0, -187500.02235174447, 0.0, 0.0, 0.0, -187500.02235174447, -0.306, 0.308, -0.898, 192.0, 0.0, 0.0, 0.0, 0.0, 0.0, 0.0, 0.0, 0.0, 0.0, 1.67770647596063E9, 0.0, 2023-03-01 13:34:35.960
249.0, 28215.925778856967, 16817.877211317686, 0.0, -187500.02235174447, 0.0, 0.0, 0.0, -187500.02235174447, -0.306, 0.308, -0.898, 192.0, 0.0, 0.0, 0.0, 0.0, 0.0, 0.0, 0.0, 0.0, 0.0, 1.677706475967124E9, 0.0, 2023-03-01 13:34:35.967
250.0, 28230.521467986284, 16849.43787448858, 0.0, -187500.02235174447, 0.0, 0.0, 0.0, -187500.02235174447, -0.306, 0.308, -0.898, 192.0, 0.0, 0.0, 0.0, 0.0, 0.0, 0.0, 0.0, 0.0, 0.0, 1.677706475975159E9, 0.0, 2023-03-01 13:34:35.975
251.0, 28266.26190737032, 16908.044148450394, 0.0, -187500.02235174447, 0.0, 0.0, 0.0, -187500.02235174447, -0.304, 0.308, -0.9, 192.0, 246.0, 128.0, 9.0, 160.0, 227.0, 224.0, 0.0, 0.0, 0.0, 1.677706475975174E9, 0.0, 2023-03-01 13:34:35.975
252.0, 28246.994703649845, 16878.20456960256, 0.0, -187500.02235174447, 0.0, 0.0, 0.0, -187500.02235174447, -0.304, 0.308, -0.9, 192.0, 0.0, 0.0, 0.0, 0.0, 0.0, 0.0, 0.0, 0.0, 0.0, 1.677706475983097E9, 0.0, 2023-03-01 13:34:35.983
253.0, 28211.880113110557, 16819.79946134084, 0.0, -187500.02235174447, 0.0, 0.0, 0.0, -187500.02235174447, -0.304, 0.308, -0.9, 192.0, 0.0, 0.0, 0.0, 0.0, 0.0, 0.0, 0.0, 0.0, 0.0, 1.677706475983115E9, 0.0, 2023-03-01 13:34:35.983
254.0, 28220.306720770208, 16837.591449927266, 0.0, -187500.02235174447, 0.0, 0.0, 0.0, -187500.02235174447, -0.304, 0.308, -0.9, 192.0, 0.0, 0.0, 0.0, 0.0, 0.0, 0.0, 0.0, 0.0, 0.0, 1.677706475990303E9, 0.0, 2023-03-01 13:34:35.990
255.0, 28255.0189799093, 16892.241465120493, 0.0, -187500.02235174447, 0.0, 0.0, 0.0, -187500.02235174447, -0.304, 0.308, -0.9, 192.0, 0.0, 0.0, 0.0, 0.0, 0.0, 0.0, 0.0, 0.0, 0.0, 1.677706475990319E9, 0.0, 2023-03-01 13:34:35.990
0.0, 28257.16474737701, 16883.591340016286, 0.0, -187500.02235174447, 0.0, 0.0, 0.0, -187500.02235174447, -0.304, 0.308, -0.9, 192.0, 0.0, 0.0, 0.0, 0.0, 0.0, 0.0, 0.0, 0.0, 0.0, 1.677706475997765E9, 0.0, 2023-03-01 13:34:35.997
1.0, 28232.24255230934, 16834.171633025602, 0.0, -187500.02235174447, 0.0, 0.0, 0.0, -187500.02235174447, -0.304, 0.308, -0.9, 192.0, 0.0, 0.0, 0.0, 0.0, 0.0, 0.0, 0.0, 0.0, 0.0, 1.677706475997776E9, 0.0, 2023-03-01 13:34:35.997
2.0, 28225.626435950573, 16830.70711263503, 0.0, -187500.02235174447, 0.0, 0.0, 0.0, -187500.02235174447, -0.304, 0.308, -0.9, 192.0, 0.0, 0.0, 0.0, 0.0, 0.0, 0.0, 0.0, 0.0, 0.0, 1.677706476005738E9, 0.0, 2023-03-01 13:34:36.005
3.0, 28252.560288019216, 16883.05489814936, 0.0, -187500.02235174447, 0.0, 0.0, 0.0, -187500.02235174447, -0.304, 0.308, -0.9, 192.0, 0.0, 0.0, 0.0, 0.0, 0.0, 0.0, 0.0, 0.0, 0.0, 1.677706476005747E9, 0.0, 2023-03-01 13:34:36.005
4.0, 28270.26286962782, 16900.39985184668, 0.0, -187500.02235174447, 0.0, 0.0, 0.0, -187500.02235174447, -0.304, 0.308, -0.9, 192.0, 0.0, 0.0, 0.0, 0.0, 0.0, 0.0, 0.0, 0.0, 0.0, 1.677706476013876E9, 0.0, 2023-03-01 13:34:36.013
5.0, 28252.64969499704, 16856.76924666992, 0.0, -187500.02235174447, 0.0, 0.0, 0.0, -187500.02235174447, -0.302, 0.31, -0.904, 192.0, 246.0, 144.0, 9.0, 176.0, 227.0, 192.0, 0.0, 0.0, 0.0, 1.677706476013895E9, 0.0, 2023-03-01 13:34:36.013
6.0, 28234.67889245497, 16835.959772582028, 0.0, -187500.02235174447, 0.0, 0.0, 0.0, -187500.02235174447, -0.302, 0.31, -0.904, 192.0, 0.0, 0.0, 0.0, 0.0, 0.0, 0.0, 0.0, 0.0, 0.0, 1.677706476020331E9, 0.0, 2023-03-01 13:34:36.020
7.0, 28253.1190816306, 16882.00436615996, 0.0, -187500.02235174447, 0.0, 0.0, 0.0, -187500.02235174447, -0.302, 0.31, -0.904, 192.0, 0.0, 0.0, 0.0, 0.0, 0.0, 0.0, 0.0, 0.0, 0.0, 1.677706476020347E9, 0.0, 2023-03-01 13:34:36.020
8.0, 28269.88288997208, 16904.44551759309, 0.0, -187500.02235174447, 0.0, 0.0, 0.0, -187500.02235174447, -0.302, 0.31, -0.904, 192.0, 0.0, 0.0, 0.0, 0.0, 0.0, 0.0, 0.0, 0.0, 0.0, 1.67770647602739E9, 0.0, 2023-03-01 13:34:36.027
9.0, 28255.287200842766, 16865.19585432957, 0.0, -187500.02235174447, 0.0, 0.0, 0.0, -187500.02235174447, -0.302, 0.31, -0.904, 192.0, 0.0, 0.0, 0.0, 0.0, 0.0, 0.0, 0.0, 0.0, 0.0, 1.677706476035327E9, 0.0, 2023-03-01 13:34:36.035
10.0, 28234.365968032598, 16830.371836468203, 0.0, -187500.02235174447, 0.0, 0.0, 0.0, -187500.02235174447, -0.302, 0.31, -0.904, 192.0, 0.0, 0.0, 0.0, 0.0, 0.0, 0.0, 0.0, 0.0, 0.0, 1.677706476035338E9, 0.0, 2023-03-01 13:34:36.035
11.0, 28241.183250091464, 16865.37466828521, 0.0, -187500.02235174447, 0.0, 0.0, 0.0, -187500.02235174447, -0.302, 0.31, -0.904, 192.0, 0.0, 0.0, 0.0, 0.0, 0.0, 0.0, 0.0, 0.0, 0.0, 1.677706476043436E9, 0.0, 2023-03-01 13:34:36.043
12.0, 28258.729369488883, 16899.461078579556, 0.0, -187500.02235174447, 0.0, 0.0, 0.0, -187500.02235174447, -0.302, 0.31, -0.904, 192.0, 0.0, 0.0, 0.0, 0.0, 0.0, 0.0, 0.0, 0.0, 0.0, 1.677706476043447E9, 0.0, 2023-03-01 13:34:36.043
13.0, 28251.77797696328, 16866.604014230255, 0.0, -187500.02235174447, 0.0, 0.0, 0.0, -187500.02235174447, -0.302, 0.31, -0.904, 192.0, 0.0, 0.0, 0.0, 0.0, 0.0, 0.0, 0.0, 0.0, 0.0, 1.677706476049987E9, 0.0, 2023-03-01 13:34:36.049
14.0, 28230.029729608268, 16825.81208059932, 0.0, -187500.02235174447, 0.0, 0.0, 0.0, -187500.02235174447, -0.302, 0.31, -0.904, 192.0, 0.0, 0.0, 0.0, 0.0, 0.0, 0.0, 0.0, 0.0, 0.0, 1.677706476049995E9, 0.0, 2023-03-01 13:34:36.049
15.0, 28241.183250091464, 16853.28237453489, 0.0, -187500.02235174447, 0.0, 0.0, 0.0, -187500.02235174447, -0.306, 0.306, -0.9, 192.0, 246.0, 112.0, 9.0, 144.0, 227.0, 224.0, 0.0, 0.0, 0.0, 1.677706476057994E9, 0.0, 2023-03-01 13:34:36.057
16.0, 28264.138491647067, 16894.43193607711, 0.0, -187500.02235174447, 0.0, 0.0, 0.0, -187500.02235174447, -0.306, 0.306, -0.9, 192.0, 0.0, 0.0, 0.0, 0.0, 0.0, 0.0, 0.0, 0.0, 0.0, 1.677706476058048E9, 0.0, 2023-03-01 13:34:36.058
17.0, 28260.40575032303, 16879.836246947794, 0.0, -187500.02235174447, 0.0, 0.0, 0.0, -187500.02235174447, -0.306, 0.306, -0.9, 192.0, 0.0, 0.0, 0.0, 0.0, 0.0, 0.0, 0.0, 0.0, 0.0, 1.677706476066033E9, 0.0, 2023-03-01 13:34:36.066
18.0, 28240.199773335433, 16838.798444127853, 0.0, -187500.02235174447, 0.0, 0.0, 0.0, -187500.02235174447, -0.306, 0.306, -0.9, 192.0, 0.0, 0.0, 0.0, 0.0, 0.0, 0.0, 0.0, 0.0, 0.0, 1.677706476066051E9, 0.0, 2023-03-01 13:34:36.066
19.0, 28242.1667268475, 16858.713848437532, 0.0, -187500.02235174447, 0.0, 0.0, 0.0, -187500.02235174447, -0.306, 0.306, -0.9, 192.0, 0.0, 0.0, 0.0, 0.0, 0.0, 0.0, 0.0, 0.0, 0.0, 1.677706476073371E9, 0.0, 2023-03-01 13:34:36.073
20.0, 28271.581622550682, 16908.178258917127, 0.0, -187500.02235174447, 0.0, 0.0, 0.0, -187500.02235174447, -0.306, 0.306, -0.9, 192.0, 0.0, 0.0, 0.0, 0.0, 0.0, 0.0, 0.0, 0.0, 0.0, 1.677706476073385E9, 0.0, 2023-03-01 13:34:36.073
21.0, 28273.146244662556, 16898.611712290254, 0.0, -187500.02235174447, 0.0, 0.0, 0.0, -187500.02235174447, -0.306, 0.306, -0.9, 192.0, 0.0, 0.0, 0.0, 0.0, 0.0, 0.0, 0.0, 0.0, 0.0, 1.677706476080703E9, 0.0, 2023-03-01 13:34:36.080
22.0, 28248.760491461813, 16855.629307702697, 0.0, -187500.02235174447, 0.0, 0.0, 0.0, -187500.02235174447, -0.306, 0.306, -0.9, 192.0, 0.0, 0.0, 0.0, 0.0, 0.0, 0.0, 0.0, 0.0, 0.0, 1.677706476080714E9, 0.0, 2023-03-01 13:34:36.080
23.0, 28241.33971230265, 16858.087999592783, 0.0, -187500.02235174447, 0.0, 0.0, 0.0, -187500.02235174447, -0.306, 0.306, -0.9, 192.0, 0.0, 0.0, 0.0, 0.0, 0.0, 0.0, 0.0, 0.0, 0.0, 1.677706476087743E9, 0.0, 2023-03-01 13:34:36.087
24.0, 28268.050046926743, 16908.066500194847, 0.0, -187500.02235174447, 0.0, 0.0, 0.0, -187500.02235174447, -0.306, 0.306, -0.9, 192.0, 0.0, 0.0, 0.0, 0.0, 0.0, 0.0, 0.0, 0.0, 0.0, 1.677706476095693E9, 0.0, 2023-03-01 13:34:36.095
25.0, 28279.78471276578, 16906.814802505352, 0.0, -187500.02235174447, 0.0, 0.0, 0.0, -187500.02235174447, -0.302, 0.306, -0.898, 192.0, 246.0, 144.0, 9.0, 144.0, 227.0, 240.0, 0.0, 0.0, 0.0, 1.677706476095713E9, 0.0, 2023-03-01 13:34:36.095
26.0, 28256.024808409788, 16855.13756932468, 0.0, -187500.02235174447, 0.0, 0.0, 0.0, -187500.02235174447, -0.302, 0.306, -0.898, 192.0, 0.0, 0.0, 0.0, 0.0, 0.0, 0.0, 0.0, 0.0, 0.0, 1.677706476102945E9, 0.0, 2023-03-01 13:34:36.102
27.0, 28245.58654374916, 16841.90533660714, 0.0, -187500.02235174447, 0.0, 0.0, 0.0, -187500.02235174447, -0.302, 0.306, -0.898, 192.0, 0.0, 0.0, 0.0, 0.0, 0.0, 0.0, 0.0, 0.0, 0.0, 1.677706476102966E9, 0.0, 2023-03-01 13:34:36.102
28.0, 28270.59814579465, 16891.68267150911, 0.0, -187500.02235174447, 0.0, 0.0, 0.0, -187500.02235174447, -0.302, 0.306, -0.898, 192.0, 0.0, 0.0, 0.0, 0.0, 0.0, 0.0, 0.0, 0.0, 0.0, 1.677706476110359E9, 0.0, 2023-03-01 13:34:36.110
29.0, 28280.634079055082, 16905.5407530714, 0.0, -187500.02235174447, 0.0, 0.0, 0.0, -187500.02235174447, -0.302, 0.306, -0.898, 192.0, 0.0, 0.0, 0.0, 0.0, 0.0, 0.0, 0.0, 0.0, 0.0, 1.677706476110375E9, 0.0, 2023-03-01 13:34:36.110
30.0, 28262.35035209064, 16864.592357229278, 0.0, -187500.02235174447, 0.0, 0.0, 0.0, -187500.02235174447, -0.302, 0.306, -0.898, 192.0, 0.0, 0.0, 0.0, 0.0, 0.0, 0.0, 0.0, 0.0, 0.0, 1.67770647611832E9, 0.0, 2023-03-01 13:34:36.118
31.0, 28245.854764682623, 16844.72165640851, 0.0, -187500.02235174447, 0.0, 0.0, 0.0, -187500.02235174447, -0.302, 0.306, -0.898, 192.0, 0.0, 0.0, 0.0, 0.0, 0.0, 0.0, 0.0, 0.0, 0.0, 1.677706476118332E9, 0.0, 2023-03-01 13:34:36.118
32.0, 28268.966468449413, 16889.96158718605, 0.0, -187500.02235174447, 0.0, 0.0, 0.0, -187500.02235174447, -0.302, 0.306, -0.898, 192.0, 0.0, 0.0, 0.0, 0.0, 0.0, 0.0, 0.0, 0.0, 0.0, 1.67770647612543E9, 0.0, 2023-03-01 13:34:36.125
33.0, 28290.133570448586, 16915.19670667609, 0.0, -187500.02235174447, 0.0, 0.0, 0.0, -187500.02235174447, -0.302, 0.306, -0.898, 192.0, 0.0, 0.0, 0.0, 0.0, 0.0, 0.0, 0.0, 0.0, 0.0, 1.67770647612547E9, 0.0, 2023-03-01 13:34:36.125
34.0, 28275.359067363628, 16876.259967834947, 0.0, -187500.02235174447, 0.0, 0.0, 0.0, -187500.02235174447, -0.302, 0.306, -0.898, 192.0, 0.0, 0.0, 0.0, 0.0, 0.0, 0.0, 0.0, 0.0, 0.0, 1.677706476132915E9, 0.0, 2023-03-01 13:34:36.132
35.0, 28248.224049594886, 16838.262002260926, 0.0, -187500.02235174447, 0.0, 0.0, 0.0, -187500.02235174447, -0.3, 0.308, -0.9, 192.0, 246.0, 160.0, 9.0, 160.0, 227.0, 224.0, 0.0, 0.0, 0.0, 1.677706476132924E9, 0.0, 2023-03-01 13:34:36.132
36.0, 28248.35816006162, 16868.2803950644, 0.0, -187500.02235174447, 0.0, 0.0, 0.0, -187500.02235174447, -0.3, 0.308, -0.9, 192.0, 0.0, 0.0, 0.0, 0.0, 0.0, 0.0, 0.0, 0.0, 0.0, 1.677706476140926E9, 0.0, 2023-03-01 13:34:36.140
37.0, 28268.653544027038, 16903.30557862587, 0.0, -187500.02235174447, 0.0, 0.0, 0.0, -187500.02235174447, -0.3, 0.308, -0.9, 192.0, 0.0, 0.0, 0.0, 0.0, 0.0, 0.0, 0.0, 0.0, 0.0, 1.677706476140941E9, 0.0, 2023-03-01 13:34:36.140
38.0, 28260.539860789762, 16870.515569509935, 0.0, -187500.02235174447, 0.0, 0.0, 0.0, -187500.02235174447, -0.3, 0.308, -0.9, 192.0, 0.0, 0.0, 0.0, 0.0, 0.0, 0.0, 0.0, 0.0, 0.0, 1.677706476148035E9, 0.0, 2023-03-01 13:34:36.148
39.0, 28234.410671521506, 16822.504022419933, 0.0, -187500.02235174447, 0.0, 0.0, 0.0, -187500.02235174447, -0.3, 0.308, -0.9, 192.0, 0.0, 0.0, 0.0, 0.0, 0.0, 0.0, 0.0, 0.0, 0.0, 1.677706476155186E9, 0.0, 2023-03-01 13:34:36.155
40.0, 28243.77605244828, 16852.790636156875, 0.0, -187500.02235174447, 0.0, 0.0, 0.0, -187500.02235174447, -0.3, 0.308, -0.9, 192.0, 0.0, 0.0, 0.0, 0.0, 0.0, 0.0, 0.0, 0.0, 0.0, 1.677706476155201E9, 0.0, 2023-03-01 13:34:36.155
41.0, 28273.34741036265, 16903.81966874834, 0.0, -187500.02235174447, 0.0, 0.0, 0.0, -187500.02235174447, -0.3, 0.308, -0.9, 192.0, 0.0, 0.0, 0.0, 0.0, 0.0, 0.0, 0.0, 0.0, 0.0, 1.67770647616262E9, 0.0, 2023-03-01 13:34:36.162
42.0, 28274.554404563238, 16889.67101450813, 0.0, -187500.02235174447, 0.0, 0.0, 0.0, -187500.02235174447, -0.3, 0.308, -0.9, 192.0, 0.0, 0.0, 0.0, 0.0, 0.0, 0.0, 0.0, 0.0, 0.0, 1.67770647616263E9, 0.0, 2023-03-01 13:34:36.162
43.0, 28249.36398856211, 16845.503967464443, 0.0, -187500.02235174447, 0.0, 0.0, 0.0, -187500.02235174447, -0.3, 0.308, -0.9, 192.0, 0.0, 0.0, 0.0, 0.0, 0.0, 0.0, 0.0, 0.0, 0.0, 1.677706476170688E9, 0.0, 2023-03-01 13:34:36.170
44.0, 28247.709959472413, 16860.613746716233, 0.0, -187500.02235174447, 0.0, 0.0, 0.0, -187500.02235174447, -0.3, 0.308, -0.9, 192.0, 0.0, 0.0, 0.0, 0.0, 0.0, 0.0, 0.0, 0.0, 0.0, 1.677706476170699E9, 0.0, 2023-03-01 13:34:36.170
45.0, 28280.991706966368, 16917.29777065489, 0.0, -187500.02235174447, 0.0, 0.0, 0.0, -187500.02235174447, -0.3, 0.308, -0.9, 192.0, 0.0, 0.0, 0.0, 0.0, 0.0, 0.0, 0.0, 0.0, 0.0, 1.677706476178616E9, 0.0, 2023-03-01 13:34:36.178
46.0, 28293.084000716688, 16917.186011932616, 0.0, -187500.02235174447, 0.0, 0.0, 0.0, -187500.02235174447, -0.298, 0.31, -0.908, 192.0, 246.0, 176.0, 9.0, 176.0, 227.0, 160.0, 0.0, 0.0, 0.0, 1.677706476178641E9, 0.0, 2023-03-01 13:34:36.178
47.0, 28270.240517883365, 16869.08505786479, 0.0, -187500.02235174447, 0.0, 0.0, 0.0, -187500.02235174447, -0.298, 0.31, -0.908, 192.0, 0.0, 0.0, 0.0, 0.0, 0.0, 0.0, 0.0, 0.0, 0.0, 1.677706476185152E9, 0.0, 2023-03-01 13:34:36.185
48.0, 28245.295971071242, 16854.71288618003, 0.0, -187500.02235174447, 0.0, 0.0, 0.0, -187500.02235174447, -0.298, 0.31, -0.908, 192.0, 0.0, 0.0, 0.0, 0.0, 0.0, 0.0, 0.0, 0.0, 0.0, 1.67770647618517E9, 0.0, 2023-03-01 13:34:36.185
49.0, 28262.015075923813, 16905.16077341566, 0.0, -187500.02235174447, 0.0, 0.0, 0.0, -187500.02235174447, -0.298, 0.31, -0.908, 192.0, 0.0, 0.0, 0.0, 0.0, 0.0, 0.0, 0.0, 0.0, 0.0, 1.677706476193343E9, 0.0, 2023-03-01 13:34:36.193
50.0, 28270.084055672178, 16917.051901465882, 0.0, -187500.02235174447, 0.0, 0.0, 0.0, -187500.02235174447, -0.298, 0.31, -0.908, 192.0, 0.0, 0.0, 0.0, 0.0, 0.0, 0.0, 0.0, 0.0, 0.0, 1.677706476193362E9, 0.0, 2023-03-01 13:34:36.193
51.0, 28243.060796625712, 16867.81100843084, 0.0, -187500.02235174447, 0.0, 0.0, 0.0, -187500.02235174447, -0.298, 0.31, -0.908, 192.0, 0.0, 0.0, 0.0, 0.0, 0.0, 0.0, 0.0, 0.0, 0.0, 1.677706476201237E9, 0.0, 2023-03-01 13:34:36.201
52.0, 28229.82856390817, 16858.333868781792, 0.0, -187500.02235174447, 0.0, 0.0, 0.0, -187500.02235174447, -0.298, 0.31, -0.908, 192.0, 0.0, 0.0, 0.0, 0.0, 0.0, 0.0, 0.0, 0.0, 0.0, 1.677706476201252E9, 0.0, 2023-03-01 13:34:36.201
53.0, 28248.98400890637, 16907.06067169436, 0.0, -187500.02235174447, 0.0, 0.0, 0.0, -187500.02235174447, -0.298, 0.31, -0.908, 192.0, 0.0, 0.0, 0.0, 0.0, 0.0, 0.0, 0.0, 0.0, 0.0, 1.67770647620837E9, 0.0, 2023-03-01 13:34:36.208
54.0, 28255.801290965235, 16923.265686424456, 0.0, -187500.02235174447, 0.0, 0.0, 0.0, -187500.02235174447, -0.298, 0.31, -0.908, 192.0, 0.0, 0.0, 0.0, 0.0, 0.0, 0.0, 0.0, 0.0, 0.0, 1.677706476208383E9, 0.0, 2023-03-01 13:34:36.208
55.0, 28231.72846218687, 16881.356165570756, 0.0, -187500.02235174447, 0.0, 0.0, 0.0, -187500.02235174447, -0.298, 0.31, -0.908, 192.0, 0.0, 0.0, 0.0, 0.0, 0.0, 0.0, 0.0, 0.0, 0.0, 1.677706476214944E9, 0.0, 2023-03-01 13:34:36.214
56.0, 28211.34367124363, 16863.51947349542, 0.0, -187500.02235174447, 0.0, 0.0, 0.0, -187500.02235174447, -0.3, 0.306, -0.91, 192.0, 246.0, 160.0, 9.0, 144.0, 227.0, 144.0, 0.0, 0.0, 0.0, 1.677706476222929E9, 0.0, 2023-03-01 13:34:36.222
57.0, 28231.05790985321, 16910.078157195825, 0.0, -187500.02235174447, 0.0, 0.0, 0.0, -187500.02235174447, -0.3, 0.306, -0.91, 192.0, 0.0, 0.0, 0.0, 0.0, 0.0, 0.0, 0.0, 0.0, 0.0, 1.677706476222948E9, 0.0, 2023-03-01 13:34:36.222
58.0, 28247.48644202786, 16934.64272435221, 0.0, -187500.02235174447, 0.0, 0.0, 0.0, -187500.02235174447, -0.3, 0.306, -0.91, 192.0, 0.0, 0.0, 0.0, 0.0, 0.0, 0.0, 0.0, 0.0, 0.0, 1.677706476230894E9, 0.0, 2023-03-01 13:34:36.230
59.0, 28219.39029924754, 16891.883837209207, 0.0, -187500.02235174447, 0.0, 0.0, 0.0, -187500.02235174447, -0.3, 0.306, -0.91, 192.0, 0.0, 0.0, 0.0, 0.0, 0.0, 0.0, 0.0, 0.0, 0.0, 1.677706476230908E9, 0.0, 2023-03-01 13:34:36.230
60.0, 28194.04342103522, 16853.081208834792, 0.0, -187500.02235174447, 0.0, 0.0, 0.0, -187500.02235174447, -0.3, 0.306, -0.91, 192.0, 0.0, 0.0, 0.0, 0.0, 0.0, 0.0, 0.0, 0.0, 0.0, 1.677706476238058E9, 0.0, 2023-03-01 13:34:36.238
61.0, 28211.67894741046, 16888.15109588517, 0.0, -187500.02235174447, 0.0, 0.0, 0.0, -187500.02235174447, -0.3, 0.306, -0.91, 192.0, 0.0, 0.0, 0.0, 0.0, 0.0, 0.0, 0.0, 0.0, 0.0, 1.677706476238073E9, 0.0, 2023-03-01 13:34:36.238
62.0, 28233.226029065376, 16924.696198069596, 0.0, -187500.02235174447, 0.0, 0.0, 0.0, -187500.02235174447, -0.3, 0.306, -0.91, 192.0, 0.0, 0.0, 0.0, 0.0, 0.0, 0.0, 0.0, 0.0, 0.0, 1.677706476245556E9, 0.0, 2023-03-01 13:34:36.245
63.0, 28224.10651732761, 16893.20259013207, 0.0, -187500.02235174447, 0.0, 0.0, 0.0, -187500.02235174447, -0.3, 0.306, -0.91, 192.0, 0.0, 0.0, 0.0, 0.0, 0.0, 0.0, 0.0, 0.0, 0.0, 1.677706476245569E9, 0.0, 2023-03-01 13:34:36.245
64.0, 28203.006470561802, 16848.655563432643, 0.0, -187500.02235174447, 0.0, 0.0, 0.0, -187500.02235174447, -0.3, 0.306, -0.91, 192.0, 0.0, 0.0, 0.0, 0.0, 0.0, 0.0, 0.0, 0.0, 0.0, 1.677706476253469E9, 0.0, 2023-03-01 13:34:36.253
65.0, 28209.264959009288, 16876.259967834947, 0.0, -187500.02235174447, 0.0, 0.0, 0.0, -187500.02235174447, -0.3, 0.306, -0.91, 192.0, 0.0, 0.0, 0.0, 0.0, 0.0, 0.0, 0.0, 0.0, 0.0, 1.6777064762535E9, 0.0, 2023-03-01 13:34:36.253
66.0, 28234.656540710515, 16925.83613703682, 0.0, -187500.02235174447, 0.0, 0.0, 0.0, -187500.02235174447, -0.298, 0.308, -0.904, 192.0, 246.0, 176.0, 9.0, 160.0, 227.0, 192.0, 0.0, 0.0, 0.0, 1.677706476261566E9, 0.0, 2023-03-01 13:34:36.261
67.0, 28229.515639485795, 16907.15007867218, 0.0, -187500.02235174447, 0.0, 0.0, 0.0, -187500.02235174447, -0.298, 0.308, -0.904, 192.0, 0.0, 0.0, 0.0, 0.0, 0.0, 0.0, 0.0, 0.0, 0.0, 1.677706476261578E9, 0.0, 2023-03-01 13:34:36.261
68.0, 28204.52638918476, 16858.825607159808, 0.0, -187500.02235174447, 0.0, 0.0, 0.0, -187500.02235174447, -0.298, 0.308, -0.904, 192.0, 0.0, 0.0, 0.0, 0.0, 0.0, 0.0, 0.0, 0.0, 0.0, 1.677706476268105E9, 0.0, 2023-03-01 13:34:36.268
69.0, 28207.476819452862, 16874.203607345058, 0.0, -187500.02235174447, 0.0, 0.0, 0.0, -187500.02235174447, -0.298, 0.308, -0.904, 192.0, 0.0, 0.0, 0.0, 0.0, 0.0, 0.0, 0.0, 0.0, 0.0, 1.677706476268124E9, 0.0, 2023-03-01 13:34:36.268
70.0, 28231.773165675782, 16927.221945193047, 0.0, -187500.02235174447, 0.0, 0.0, 0.0, -187500.02235174447, -0.298, 0.308, -0.904, 192.0, 0.0, 0.0, 0.0, 0.0, 0.0, 0.0, 0.0, 0.0, 0.0, 1.677706476275162E9, 0.0, 2023-03-01 13:34:36.275
71.0, 28232.466069753897, 16919.711759056063, 0.0, -187500.02235174447, 0.0, 0.0, 0.0, -187500.02235174447, -0.298, 0.308, -0.904, 192.0, 0.0, 0.0, 0.0, 0.0, 0.0, 0.0, 0.0, 0.0, 0.0, 1.677706476283078E9, 0.0, 2023-03-01 13:34:36.283
72.0, 28208.63911016454, 16874.24831083397, 0.0, -187500.02235174447, 0.0, 0.0, 0.0, -187500.02235174447, -0.298, 0.308, -0.904, 192.0, 0.0, 0.0, 0.0, 0.0, 0.0, 0.0, 0.0, 0.0, 0.0, 1.677706476283092E9, 0.0, 2023-03-01 13:34:36.283
73.0, 28204.928720584958, 16876.438781790588, 0.0, -187500.02235174447, 0.0, 0.0, 0.0, -187500.02235174447, -0.298, 0.308, -0.904, 192.0, 0.0, 0.0, 0.0, 0.0, 0.0, 0.0, 0.0, 0.0, 0.0, 1.677706476291179E9, 0.0, 2023-03-01 13:34:36.291
74.0, 28234.410671521506, 16928.96538126056, 0.0, -187500.02235174447, 0.0, 0.0, 0.0, -187500.02235174447, -0.298, 0.308, -0.904, 192.0, 0.0, 0.0, 0.0, 0.0, 0.0, 0.0, 0.0, 0.0, 0.0, 1.677706476291193E9, 0.0, 2023-03-01 13:34:36.291
75.0, 28250.21335485141, 16935.983829019526, 0.0, -187500.02235174447, 0.0, 0.0, 0.0, -187500.02235174447, -0.298, 0.308, -0.904, 192.0, 0.0, 0.0, 0.0, 0.0, 0.0, 0.0, 0.0, 0.0, 0.0, 1.677706476297762E9, 0.0, 2023-03-01 13:34:36.297
76.0, 28239.50686925732, 16897.11414541175, 0.0, -187500.02235174447, 0.0, 0.0, 0.0, -187500.02235174447, -0.302, 0.314, -0.908, 192.0, 246.0, 144.0, 9.0, 208.0, 227.0, 160.0, 0.0, 0.0, 0.0, 1.677706476297774E9, 0.0, 2023-03-01 13:34:36.297
77.0, 28233.58365697666, 16888.173447629626, 0.0, -187500.02235174447, 0.0, 0.0, 0.0, -187500.02235174447, -0.302, 0.314, -0.908, 192.0, 0.0, 0.0, 0.0, 0.0, 0.0, 0.0, 0.0, 0.0, 0.0, 1.677706476305722E9, 0.0, 2023-03-01 13:34:36.305
78.0, 28260.003418922835, 16941.705875600084, 0.0, -187500.02235174447, 0.0, 0.0, 0.0, -187500.02235174447, -0.302, 0.314, -0.908, 192.0, 0.0, 0.0, 0.0, 0.0, 0.0, 0.0, 0.0, 0.0, 0.0, 1.67770647630574E9, 0.0, 2023-03-01 13:34:36.305
79.0, 28273.861500485124, 16958.961422319582, 0.0, -187500.02235174447, 0.0, 0.0, 0.0, -187500.02235174447, -0.302, 0.314, -0.908, 192.0, 0.0, 0.0, 0.0, 0.0, 0.0, 0.0, 0.0, 0.0, 0.0, 1.677706476313787E9, 0.0, 2023-03-01 13:34:36.313
80.0, 28254.348427575642, 16916.761328787965, 0.0, -187500.02235174447, 0.0, 0.0, 0.0, -187500.02235174447, -0.302, 0.314, -0.908, 192.0, 0.0, 0.0, 0.0, 0.0, 0.0, 0.0, 0.0, 0.0, 0.0, 1.677706476313808E9, 0.0, 2023-03-01 13:34:36.313
81.0, 28231.460241253408, 16886.094735395283, 0.0, -187500.02235174447, 0.0, 0.0, 0.0, -187500.02235174447, -0.302, 0.314, -0.908, 192.0, 0.0, 0.0, 0.0, 0.0, 0.0, 0.0, 0.0, 0.0, 0.0, 1.677706476320883E9, 0.0, 2023-03-01 13:34:36.320
82.0, 28248.849898439636, 16925.277343425434, 0.0, -187500.02235174447, 0.0, 0.0, 0.0, -187500.02235174447, -0.302, 0.314, -0.908, 192.0, 0.0, 0.0, 0.0, 0.0, 0.0, 0.0, 0.0, 0.0, 0.0, 1.67770647632093E9, 0.0, 2023-03-01 13:34:36.320
83.0, 28263.98202943588, 16948.7019716146, 0.0, -187500.02235174447, 0.0, 0.0, 0.0, -187500.02235174447, -0.302, 0.314, -0.908, 192.0, 0.0, 0.0, 0.0, 0.0, 0.0, 0.0, 0.0, 0.0, 0.0, 1.677706476328425E9, 0.0, 2023-03-01 13:34:36.328
84.0, 28241.78674719176, 16910.838116507308, 0.0, -187500.02235174447, 0.0, 0.0, 0.0, -187500.02235174447, -0.302, 0.314, -0.908, 192.0, 0.0, 0.0, 0.0, 0.0, 0.0, 0.0, 0.0, 0.0, 0.0, 1.677706476328439E9, 0.0, 2023-03-01 13:34:36.328
85.0, 28216.708089912903, 16871.58845324379, 0.0, -187500.02235174447, 0.0, 0.0, 0.0, -187500.02235174447, -0.302, 0.314, -0.908, 192.0, 0.0, 0.0, 0.0, 0.0, 0.0, 0.0, 0.0, 0.0, 0.0, 1.677706476335377E9, 0.0, 2023-03-01 13:34:36.335
86.0, 28231.8625726536, 16909.3405496288, 0.0, -187500.02235174447, 0.0, 0.0, 0.0, -187500.02235174447, -0.302, 0.316, -0.902, 192.0, 246.0, 144.0, 9.0, 224.0, 227.0, 208.0, 0.0, 0.0, 0.0, 1.677706476343387E9, 0.0, 2023-03-01 13:34:36.343
87.0, 28260.361046834118, 16951.96532630507, 0.0, -187500.02235174447, 0.0, 0.0, 0.0, -187500.02235174447, -0.302, 0.316, -0.902, 192.0, 0.0, 0.0, 0.0, 0.0, 0.0, 0.0, 0.0, 0.0, 0.0, 1.677706476343398E9, 0.0, 2023-03-01 13:34:36.343
88.0, 28254.795462464746, 16922.081043968326, 0.0, -187500.02235174447, 0.0, 0.0, 0.0, -187500.02235174447, -0.302, 0.316, -0.902, 192.0, 0.0, 0.0, 0.0, 0.0, 0.0, 0.0, 0.0, 0.0, 0.0, 1.6777064763505E9, 0.0, 2023-03-01 13:34:36.350
89.0, 28236.265866311296, 16883.90426443866, 0.0, -187500.02235174447, 0.0, 0.0, 0.0, -187500.02235174447, -0.302, 0.316, -0.902, 192.0, 0.0, 0.0, 0.0, 0.0, 0.0, 0.0, 0.0, 0.0, 0.0, 1.677706476350526E9, 0.0, 2023-03-01 13:34:36.350
90.0, 28236.82465992268, 16908.893514739695, 0.0, -187500.02235174447, 0.0, 0.0, 0.0, -187500.02235174447, -0.302, 0.316, -0.902, 192.0, 0.0, 0.0, 0.0, 0.0, 0.0, 0.0, 0.0, 0.0, 0.0, 1.677706476357991E9, 0.0, 2023-03-01 13:34:36.357
91.0, 28253.901392686534, 16949.707800115088, 0.0, -187500.02235174447, 0.0, 0.0, 0.0, -187500.02235174447, -0.302, 0.316, -0.902, 192.0, 0.0, 0.0, 0.0, 0.0, 0.0, 0.0, 0.0, 0.0, 0.0, 1.677706476358006E9, 0.0, 2023-03-01 13:34:36.358
92.0, 28249.051064139734, 16928.697160327098, 0.0, -187500.02235174447, 0.0, 0.0, 0.0, -187500.02235174447, -0.302, 0.316, -0.902, 192.0, 0.0, 0.0, 0.0, 0.0, 0.0, 0.0, 0.0, 0.0, 0.0, 1.677706476365995E9, 0.0, 2023-03-01 13:34:36.365
93.0, 28224.911180128, 16878.897473680674, 0.0, -187500.02235174447, 0.0, 0.0, 0.0, -187500.02235174447, -0.302, 0.316, -0.902, 192.0, 0.0, 0.0, 0.0, 0.0, 0.0, 0.0, 0.0, 0.0, 0.0, 1.677706476366012E9, 0.0, 2023-03-01 13:34:36.366
94.0, 28221.603121948618, 16883.68074699411, 0.0, -187500.02235174447, 0.0, 0.0, 0.0, -187500.02235174447, -0.302, 0.316, -0.902, 192.0, 0.0, 0.0, 0.0, 0.0, 0.0, 0.0, 0.0, 0.0, 0.0, 1.677706476374092E9, 0.0, 2023-03-01 13:34:36.374
95.0, 28237.53991574525, 16928.384235904723, 0.0, -187500.02235174447, 0.0, 0.0, 0.0, -187500.02235174447, -0.302, 0.316, -0.902, 192.0, 0.0, 0.0, 0.0, 0.0, 0.0, 0.0, 0.0, 0.0, 0.0, 1.677706476374104E9, 0.0, 2023-03-01 13:34:36.374
96.0, 28230.990854619846, 16921.477546868035, 0.0, -187500.02235174447, 0.0, 0.0, 0.0, -187500.02235174447, -0.302, 0.316, -0.904, 192.0, 246.0, 144.0, 9.0, 224.0, 227.0, 192.0, 0.0, 0.0, 0.0, 1.67770647638064E9, 0.0, 2023-03-01 13:34:36.380
97.0, 28201.710069383393, 16867.699249708563, 0.0, -187500.02235174447, 0.0, 0.0, 0.0, -187500.02235174447, -0.302, 0.316, -0.904, 192.0, 0.0, 0.0, 0.0, 0.0, 0.0, 0.0, 0.0, 0.0, 0.0, 1.677706476380649E9, 0.0, 2023-03-01 13:34:36.380
98.0, 28193.037592534733, 16863.184197328592, 0.0, -187500.02235174447, 0.0, 0.0, 0.0, -187500.02235174447, -0.302, 0.316, -0.904, 192.0, 0.0, 0.0, 0.0, 0.0, 0.0, 0.0, 0.0, 0.0, 0.0, 1.677706476388673E9, 0.0, 2023-03-01 13:34:36.388
99.0, 28218.71974691388, 16915.15200318718, 0.0, -187500.02235174447, 0.0, 0.0, 0.0, -187500.02235174447, -0.302, 0.316, -0.904, 192.0, 0.0, 0.0, 0.0, 0.0, 0.0, 0.0, 0.0, 0.0, 0.0, 1.677706476388688E9, 0.0, 2023-03-01 13:34:36.388
100.0, 28231.50494474232, 16924.047997480393, 0.0, -187500.02235174447, 0.0, 0.0, 0.0, -187500.02235174447, -0.302, 0.316, -0.904, 192.0, 0.0, 0.0, 0.0, 0.0, 0.0, 0.0, 0.0, 0.0, 0.0, 1.677706476395639E9, 0.0, 2023-03-01 13:34:36.395
101.0, 28218.473877724875, 16881.95966267105, 0.0, -187500.02235174447, 0.0, 0.0, 0.0, -187500.02235174447, -0.302, 0.316, -0.904, 192.0, 0.0, 0.0, 0.0, 0.0, 0.0, 0.0, 0.0, 0.0, 0.0, 1.677706476403067E9, 0.0, 2023-03-01 13:34:36.403
102.0, 28200.704240882904, 16863.988860128982, 0.0, -187500.02235174447, 0.0, 0.0, 0.0, -187500.02235174447, -0.302, 0.316, -0.904, 192.0, 0.0, 0.0, 0.0, 0.0, 0.0, 0.0, 0.0, 0.0, 0.0, 1.677706476403086E9, 0.0, 2023-03-01 13:34:36.403
103.0, 28216.909255613, 16907.999444961482, 0.0, -187500.02235174447, 0.0, 0.0, 0.0, -187500.02235174447, -0.302, 0.316, -0.904, 192.0, 0.0, 0.0, 0.0, 0.0, 0.0, 0.0, 0.0, 0.0, 0.0, 1.67770647641038E9, 0.0, 2023-03-01 13:34:36.410
104.0, 28229.716805185893, 16924.919715514152, 0.0, -187500.02235174447, 0.0, 0.0, 0.0, -187500.02235174447, -0.302, 0.316, -0.904, 192.0, 0.0, 0.0, 0.0, 0.0, 0.0, 0.0, 0.0, 0.0, 0.0, 1.677706476410397E9, 0.0, 2023-03-01 13:34:36.410
105.0, 28209.779049131757, 16882.741973726985, 0.0, -187500.02235174447, 0.0, 0.0, 0.0, -187500.02235174447, -0.302, 0.316, -0.904, 192.0, 0.0, 0.0, 0.0, 0.0, 0.0, 0.0, 0.0, 0.0, 0.0, 1.677706476418364E9, 0.0, 2023-03-01 13:34:36.418
106.0, 28194.378697202053, 16855.13756932468, 0.0, -187500.02235174447, 0.0, 0.0, 0.0, -187500.02235174447, -0.3, 0.316, -0.908, 192.0, 246.0, 160.0, 9.0, 224.0, 227.0, 160.0, 0.0, 0.0, 0.0, 1.677706476418375E9, 0.0, 2023-03-01 13:34:36.418
107.0, 28217.646863180027, 16896.24242737799, 0.0, -187500.02235174447, 0.0, 0.0, 0.0, -187500.02235174447, -0.3, 0.316, -0.908, 192.0, 0.0, 0.0, 0.0, 0.0, 0.0, 0.0, 0.0, 0.0, 0.0, 1.677706476426322E9, 0.0, 2023-03-01 13:34:36.426
108.0, 28241.004436135823, 16926.3949306482, 0.0, -187500.02235174447, 0.0, 0.0, 0.0, -187500.02235174447, -0.3, 0.316, -0.908, 192.0, 0.0, 0.0, 0.0, 0.0, 0.0, 0.0, 0.0, 0.0, 0.0, 1.677706476426333E9, 0.0, 2023-03-01 13:34:36.426
109.0, 28218.630339936062, 16889.402793574667, 0.0, -187500.02235174447, 0.0, 0.0, 0.0, -187500.02235174447, -0.3, 0.316, -0.908, 192.0, 0.0, 0.0, 0.0, 0.0, 0.0, 0.0, 0.0, 0.0, 0.0, 1.677706476433405E9, 0.0, 2023-03-01 13:34:36.433
110.0, 28192.121171012066, 16847.985011098983, 0.0, -187500.02235174447, 0.0, 0.0, 0.0, -187500.02235174447, -0.3, 0.316, -0.908, 192.0, 0.0, 0.0, 0.0, 0.0, 0.0, 0.0, 0.0, 0.0, 0.0, 1.677706476433429E9, 0.0, 2023-03-01 13:34:36.433
111.0, 28201.48655193884, 16877.936348669096, 0.0, -187500.02235174447, 0.0, 0.0, 0.0, -187500.02235174447, -0.3, 0.316, -0.908, 192.0, 0.0, 0.0, 0.0, 0.0, 0.0, 0.0, 0.0, 0.0, 0.0, 1.677706476440931E9, 0.0, 2023-03-01 13:34:36.440
112.0, 28224.620607450084, 16917.96832298855, 0.0, -187500.02235174447, 0.0, 0.0, 0.0, -187500.02235174447, -0.3, 0.316, -0.908, 192.0, 0.0, 0.0, 0.0, 0.0, 0.0, 0.0, 0.0, 0.0, 0.0, 1.677706476440945E9, 0.0, 2023-03-01 13:34:36.440
113.0, 28220.619645192583, 16898.075270423327, 0.0, -187500.02235174447, 0.0, 0.0, 0.0, -187500.02235174447, -0.3, 0.316, -0.908, 192.0, 0.0, 0.0, 0.0, 0.0, 0.0, 0.0, 0.0, 0.0, 0.0, 1.677706476448992E9, 0.0, 2023-03-01 13:34:36.448
114.0, 28199.139618771034, 16853.19296755707, 0.0, -187500.02235174447, 0.0, 0.0, 0.0, -187500.02235174447, -0.3, 0.316, -0.908, 192.0, 0.0, 0.0, 0.0, 0.0, 0.0, 0.0, 0.0, 0.0, 0.0, 1.677706476449031E9, 0.0, 2023-03-01 13:34:36.449
115.0, 28198.91610132648, 16871.856674177252, 0.0, -187500.02235174447, 0.0, 0.0, 0.0, -187500.02235174447, -0.3, 0.316, -0.908, 192.0, 0.0, 0.0, 0.0, 0.0, 0.0, 0.0, 0.0, 0.0, 0.0, 1.677706476456222E9, 0.0, 2023-03-01 13:34:36.456
116.0, 28223.63713069405, 16921.790471290406, 0.0, -187500.02235174447, 0.0, 0.0, 0.0, -187500.02235174447, -0.302, 0.314, -0.906, 192.0, 246.0, 144.0, 9.0, 208.0, 227.0, 176.0, 0.0, 0.0, 0.0, 1.677706476456246E9, 0.0, 2023-03-01 13:34:36.456
117.0, 28220.709052170405, 16907.59711356129, 0.0, -187500.02235174447, 0.0, 0.0, 0.0, -187500.02235174447, -0.302, 0.314, -0.906, 192.0, 0.0, 0.0, 0.0, 0.0, 0.0, 0.0, 0.0, 0.0, 0.0, 1.677706476462593E9, 0.0, 2023-03-01 13:34:36.462
118.0, 28194.803380346704, 16859.697325193563, 0.0, -187500.02235174447, 0.0, 0.0, 0.0, -187500.02235174447, -0.302, 0.314, -0.906, 192.0, 0.0, 0.0, 0.0, 0.0, 0.0, 0.0, 0.0, 0.0, 0.0, 1.677706476470587E9, 0.0, 2023-03-01 13:34:36.470
119.0, 28199.139618771034, 16873.82362768932, 0.0, -187500.02235174447, 0.0, 0.0, 0.0, -187500.02235174447, -0.302, 0.314, -0.906, 192.0, 0.0, 0.0, 0.0, 0.0, 0.0, 0.0, 0.0, 0.0, 0.0, 1.677706476470598E9, 0.0, 2023-03-01 13:34:36.470
120.0, 28234.187154076953, 16929.904154527685, 0.0, -187500.02235174447, 0.0, 0.0, 0.0, -187500.02235174447, -0.302, 0.314, -0.906, 192.0, 0.0, 0.0, 0.0, 0.0, 0.0, 0.0, 0.0, 0.0, 0.0, 1.677706476478603E9, 0.0, 2023-03-01 13:34:36.478
121.0, 28239.417462279496, 16928.07131148235, 0.0, -187500.02235174447, 0.0, 0.0, 0.0, -187500.02235174447, -0.302, 0.314, -0.906, 192.0, 0.0, 0.0, 0.0, 0.0, 0.0, 0.0, 0.0, 0.0, 0.0, 1.677706476478621E9, 0.0, 2023-03-01 13:34:36.478
122.0, 28218.71974691388, 16882.451401049067, 0.0, -187500.02235174447, 0.0, 0.0, 0.0, -187500.02235174447, -0.302, 0.314, -0.906, 192.0, 0.0, 0.0, 0.0, 0.0, 0.0, 0.0, 0.0, 0.0, 0.0, 1.677706476487195E9, 0.0, 2023-03-01 13:34:36.487
123.0, 28205.934549085447, 16872.460171277544, 0.0, -187500.02235174447, 0.0, 0.0, 0.0, -187500.02235174447, -0.302, 0.314, -0.906, 192.0, 0.0, 0.0, 0.0, 0.0, 0.0, 0.0, 0.0, 0.0, 0.0, 1.677706476487212E9, 0.0, 2023-03-01 13:34:36.487
124.0, 28224.73236617236, 16924.45032888059, 0.0, -187500.02235174447, 0.0, 0.0, 0.0, -187500.02235174447, -0.302, 0.314, -0.906, 192.0, 0.0, 0.0, 0.0, 0.0, 0.0, 0.0, 0.0, 0.0, 0.0, 1.677706476493561E9, 0.0, 2023-03-01 13:34:36.493
125.0, 28232.399014520528, 16927.512517870968, 0.0, -187500.02235174447, 0.0, 0.0, 0.0, -187500.02235174447, -0.302, 0.314, -0.906, 192.0, 0.0, 0.0, 0.0, 0.0, 0.0, 0.0, 0.0, 0.0, 0.0, 1.677706476493574E9, 0.0, 2023-03-01 13:34:36.493
126.0, 28208.952034586913, 16878.115162624737, 0.0, -187500.02235174447, 0.0, 0.0, 0.0, -187500.02235174447, -0.302, 0.314, -0.906, 192.0, 0.0, 0.0, 0.0, 0.0, 0.0, 0.0, 0.0, 0.0, 0.0, 1.677706476501249E9, 0.0, 2023-03-01 13:34:36.501
127.0, 28191.495322167317, 16855.76341816943, 0.0, -187500.02235174447, 0.0, 0.0, 0.0, -187500.02235174447, -0.302, 0.31, -0.914, 192.0, 246.0, 144.0, 9.0, 176.0, 227.0, 112.0, 0.0, 0.0, 0.0, 1.67770647650126E9, 0.0, 2023-03-01 13:34:36.501
128.0, 28215.836371879148, 16904.82549724883, 0.0, -187500.02235174447, 0.0, 0.0, 0.0, -187500.02235174447, -0.302, 0.31, -0.914, 192.0, 0.0, 0.0, 0.0, 0.0, 0.0, 0.0, 0.0, 0.0, 0.0, 1.677706476509248E9, 0.0, 2023-03-01 13:34:36.509
129.0, 28236.44468026694, 16930.15002371669, 0.0, -187500.02235174447, 0.0, 0.0, 0.0, -187500.02235174447, -0.302, 0.31, -0.914, 192.0, 0.0, 0.0, 0.0, 0.0, 0.0, 0.0, 0.0, 0.0, 0.0, 1.677706476509257E9, 0.0, 2023-03-01 13:34:36.509
130.0, 28218.29506376923, 16889.402793574667, 0.0, -187500.02235174447, 0.0, 0.0, 0.0, -187500.02235174447, -0.302, 0.31, -0.914, 192.0, 0.0, 0.0, 0.0, 0.0, 0.0, 0.0, 0.0, 0.0, 0.0, 1.67770647651584E9, 0.0, 2023-03-01 13:34:36.515
131.0, 28194.91513906898, 16852.85769139024, 0.0, -187500.02235174447, 0.0, 0.0, 0.0, -187500.02235174447, -0.302, 0.31, -0.914, 192.0, 0.0, 0.0, 0.0, 0.0, 0.0, 0.0, 0.0, 0.0, 0.0, 1.677706476515885E9, 0.0, 2023-03-01 13:34:36.515
132.0, 28202.1571042725, 16881.803200459864, 0.0, -187500.02235174447, 0.0, 0.0, 0.0, -187500.02235174447, -0.302, 0.31, -0.914, 192.0, 0.0, 0.0, 0.0, 0.0, 0.0, 0.0, 0.0, 0.0, 0.0, 1.677706476522842E9, 0.0, 2023-03-01 13:34:36.522
133.0, 28209.82375262067, 16903.953779215073, 0.0, -187500.02235174447, 0.0, 0.0, 0.0, -187500.02235174447, -0.302, 0.31, -0.914, 192.0, 0.0, 0.0, 0.0, 0.0, 0.0, 0.0, 0.0, 0.0, 0.0, 1.677706476531017E9, 0.0, 2023-03-01 13:34:36.531
134.0, 28179.24656620581, 16852.634173945688, 0.0, -187500.02235174447, 0.0, 0.0, 0.0, -187500.02235174447, -0.302, 0.31, -0.914, 192.0, 0.0, 0.0, 0.0, 0.0, 0.0, 0.0, 0.0, 0.0, 0.0, 1.677706476531032E9, 0.0, 2023-03-01 13:34:36.531
135.0, 28137.51585930775, 16796.732461062966, 0.0, -187500.02235174447, 0.0, 0.0, 0.0, -187500.02235174447, -0.302, 0.31, -0.914, 192.0, 0.0, 0.0, 0.0, 0.0, 0.0, 0.0, 0.0, 0.0, 0.0, 1.677706476539028E9, 0.0, 2023-03-01 13:34:36.539
136.0, 28121.109678877554, 16801.381623909667, 0.0, -187500.02235174447, 0.0, 0.0, 0.0, -187500.02235174447, -0.302, 0.31, -0.914, 192.0, 0.0, 0.0, 0.0, 0.0, 0.0, 0.0, 0.0, 0.0, 0.0, 1.677706476539039E9, 0.0, 2023-03-01 13:34:36.539
137.0, 28094.309937275644, 16797.447716885534, 0.0, -187500.02235174447, 0.0, 0.0, 0.0, -187500.02235174447, -0.298, 0.308, -0.902, 192.0, 246.0, 176.0, 9.0, 160.0, 227.0, 208.0, 0.0, 0.0, 0.0, 1.677706476545539E9, 0.0, 2023-03-01 13:34:36.545
138.0, 28037.000064492237, 16730.83951840872, 0.0, -187500.02235174447, 0.0, 0.0, 0.0, -187500.02235174447, -0.298, 0.308, -0.902, 192.0, 0.0, 0.0, 0.0, 0.0, 0.0, 0.0, 0.0, 0.0, 0.0, 1.67770647654555E9, 0.0, 2023-03-01 13:34:36.545
139.0, 27979.779598686648, 16655.96117448344, 0.0, -187500.02235174447, 0.0, 0.0, 0.0, -187500.02235174447, -0.298, 0.308, -0.902, 192.0, 0.0, 0.0, 0.0, 0.0, 0.0, 0.0, 0.0, 0.0, 0.0, 1.67770647655349E9, 0.0, 2023-03-01 13:34:36.553
140.0, 27956.399673986398, 16650.462645347434, 0.0, -187500.02235174447, 0.0, 0.0, 0.0, -187500.02235174447, -0.298, 0.308, -0.902, 192.0, 0.0, 0.0, 0.0, 0.0, 0.0, 0.0, 0.0, 0.0, 0.0, 1.677706476553502E9, 0.0, 2023-03-01 13:34:36.553
141.0, 27963.77574965665, 16685.264311464347, 0.0, -187500.02235174447, 0.0, 0.0, 0.0, -187500.02235174447, -0.298, 0.308, -0.902, 192.0, 0.0, 0.0, 0.0, 0.0, 0.0, 0.0, 0.0, 0.0, 0.0, 1.677706476561531E9, 0.0, 2023-03-01 13:34:36.561
142.0, 27947.57073492655, 16661.213834430437, 0.0, -187500.02235174447, 0.0, 0.0, 0.0, -187500.02235174447, -0.298, 0.308, -0.902, 192.0, 0.0, 0.0, 0.0, 0.0, 0.0, 0.0, 0.0, 0.0, 0.0, 1.67770647656155E9, 0.0, 2023-03-01 13:34:36.561
143.0, 27908.119905962936, 16594.404470253525, 0.0, -187500.02235174447, 0.0, 0.0, 0.0, -187500.02235174447, -0.298, 0.308, -0.902, 192.0, 0.0, 0.0, 0.0, 0.0, 0.0, 0.0, 0.0, 0.0, 0.0, 1.677706476568607E9, 0.0, 2023-03-01 13:34:36.568
144.0, 27891.66902204383, 16584.502647459823, 0.0, -187500.02235174447, 0.0, 0.0, 0.0, -187500.02235174447, -0.298, 0.308, -0.902, 192.0, 0.0, 0.0, 0.0, 0.0, 0.0, 0.0, 0.0, 0.0, 0.0, 1.677706476568625E9, 0.0, 2023-03-01 13:34:36.568
145.0, 27903.22487392722, 16628.8261567147, 0.0, -187500.02235174447, 0.0, 0.0, 0.0, -187500.02235174447, -0.298, 0.308, -0.902, 192.0, 0.0, 0.0, 0.0, 0.0, 0.0, 0.0, 0.0, 0.0, 0.0, 1.677706476576234E9, 0.0, 2023-03-01 13:34:36.576
146.0, 27910.355080408466, 16629.8766887041, 0.0, -187500.02235174447, 0.0, 0.0, 0.0, -187500.02235174447, -0.298, 0.308, -0.902, 192.0, 0.0, 0.0, 0.0, 0.0, 0.0, 0.0, 0.0, 0.0, 0.0, 1.677706476576249E9, 0.0, 2023-03-01 13:34:36.576
147.0, 27894.37358312292, 16585.217903282395, 0.0, -187500.02235174447, 0.0, 0.0, 0.0, -187500.02235174447, -0.298, 0.31, -0.906, 192.0, 246.0, 176.0, 9.0, 176.0, 227.0, 176.0, 0.0, 0.0, 0.0, 1.677706476583254E9, 0.0, 2023-03-01 13:34:36.583
148.0, 27887.04221094158, 16570.08577228615, 0.0, -187500.02235174447, 0.0, 0.0, 0.0, -187500.02235174447, -0.298, 0.31, -0.906, 192.0, 0.0, 0.0, 0.0, 0.0, 0.0, 0.0, 0.0, 0.0, 0.0, 1.677706476591226E9, 0.0, 2023-03-01 13:34:36.591
149.0, 27907.51640886264, 16616.53269726428, 0.0, -187500.02235174447, 0.0, 0.0, 0.0, -187500.02235174447, -0.298, 0.31, -0.906, 192.0, 0.0, 0.0, 0.0, 0.0, 0.0, 0.0, 0.0, 0.0, 0.0, 1.67770647659124E9, 0.0, 2023-03-01 13:34:36.591
150.0, 27928.459993417266, 16639.73380800889, 0.0, -187500.02235174447, 0.0, 0.0, 0.0, -187500.02235174447, -0.298, 0.31, -0.906, 192.0, 0.0, 0.0, 0.0, 0.0, 0.0, 0.0, 0.0, 0.0, 0.0, 1.677706476598416E9, 0.0, 2023-03-01 13:34:36.598
151.0, 27908.231664685212, 16596.214961554404, 0.0, -187500.02235174447, 0.0, 0.0, 0.0, -187500.02235174447, -0.298, 0.31, -0.906, 192.0, 0.0, 0.0, 0.0, 0.0, 0.0, 0.0, 0.0, 0.0, 0.0, 1.67770647659844E9, 0.0, 2023-03-01 13:34:36.598
152.0, 27897.681641302308, 16580.881664858065, 0.0, -187500.02235174447, 0.0, 0.0, 0.0, -187500.02235174447, -0.298, 0.31, -0.906, 192.0, 0.0, 0.0, 0.0, 0.0, 0.0, 0.0, 0.0, 0.0, 0.0, 1.677706476605776E9, 0.0, 2023-03-01 13:34:36.605
153.0, 27929.57758064003, 16637.72215100791, 0.0, -187500.02235174447, 0.0, 0.0, 0.0, -187500.02235174447, -0.298, 0.31, -0.906, 192.0, 0.0, 0.0, 0.0, 0.0, 0.0, 0.0, 0.0, 0.0, 0.0, 1.677706476605793E9, 0.0, 2023-03-01 13:34:36.605
154.0, 27954.96916234126, 16668.031116489306, 0.0, -187500.02235174447, 0.0, 0.0, 0.0, -187500.02235174447, -0.298, 0.31, -0.906, 192.0, 0.0, 0.0, 0.0, 0.0, 0.0, 0.0, 0.0, 0.0, 0.0, 1.677706476613894E9, 0.0, 2023-03-01 13:34:36.613
155.0, 27951.996380328703, 16643.734770266386, 0.0, -187500.02235174447, 0.0, 0.0, 0.0, -187500.02235174447, -0.298, 0.31, -0.906, 192.0, 0.0, 0.0, 0.0, 0.0, 0.0, 0.0, 0.0, 0.0, 0.0, 1.677706476613911E9, 0.0, 2023-03-01 13:34:36.613
156.0, 27957.584316442528, 16631.91069744953, 0.0, -187500.02235174447, 0.0, 0.0, 0.0, -187500.02235174447, -0.298, 0.31, -0.906, 192.0, 0.0, 0.0, 0.0, 0.0, 0.0, 0.0, 0.0, 0.0, 0.0, 1.677706476620933E9, 0.0, 2023-03-01 13:34:36.620
157.0, 27981.813607432083, 16673.350831669668, 0.0, -187500.02235174447, 0.0, 0.0, 0.0, -187500.02235174447, -0.304, 0.314, -0.906, 192.0, 246.0, 128.0, 9.0, 208.0, 227.0, 176.0, 0.0, 0.0, 0.0, 1.677706476620945E9, 0.0, 2023-03-01 13:34:36.620
158.0, 28004.813552476593, 16714.813317634264, 0.0, -187500.02235174447, 0.0, 0.0, 0.0, -187500.02235174447, -0.304, 0.314, -0.906, 192.0, 0.0, 0.0, 0.0, 0.0, 0.0, 0.0, 0.0, 0.0, 0.0, 1.677706476629184E9, 0.0, 2023-03-01 13:34:36.629
159.0, 28008.054555422612, 16697.66952963704, 0.0, -187500.02235174447, 0.0, 0.0, 0.0, -187500.02235174447, -0.304, 0.314, -0.906, 192.0, 0.0, 0.0, 0.0, 0.0, 0.0, 0.0, 0.0, 0.0, 0.0, 1.677706476629197E9, 0.0, 2023-03-01 13:34:36.629
160.0, 27989.54731101362, 16661.616165830634, 0.0, -187500.02235174447, 0.0, 0.0, 0.0, -187500.02235174447, -0.304, 0.314, -0.906, 192.0, 0.0, 0.0, 0.0, 0.0, 0.0, 0.0, 0.0, 0.0, 0.0, 1.67770647663763E9, 0.0, 2023-03-01 13:34:36.637
161.0, 28003.897130953927, 16694.294416224293, 0.0, -187500.02235174447, 0.0, 0.0, 0.0, -187500.02235174447, -0.304, 0.314, -0.906, 192.0, 0.0, 0.0, 0.0, 0.0, 0.0, 0.0, 0.0, 0.0, 0.0, 1.677706476637641E9, 0.0, 2023-03-01 13:34:36.637
162.0, 28039.726977315782, 16750.821977951764, 0.0, -187500.02235174447, 0.0, 0.0, 0.0, -187500.02235174447, -0.304, 0.314, -0.906, 192.0, 0.0, 0.0, 0.0, 0.0, 0.0, 0.0, 0.0, 0.0, 0.0, 1.677706476643906E9, 0.0, 2023-03-01 13:34:36.643
163.0, 28041.850393039036, 16732.22532656495, 0.0, -187500.02235174447, 0.0, 0.0, 0.0, -187500.02235174447, -0.304, 0.314, -0.906, 192.0, 0.0, 0.0, 0.0, 0.0, 0.0, 0.0, 0.0, 0.0, 0.0, 1.677706476650775E9, 0.0, 2023-03-01 13:34:36.650
164.0, 28027.92525624338, 16690.516971411344, 0.0, -187500.02235174447, 0.0, 0.0, 0.0, -187500.02235174447, -0.304, 0.314, -0.906, 192.0, 0.0, 0.0, 0.0, 0.0, 0.0, 0.0, 0.0, 0.0, 0.0, 1.677706476650793E9, 0.0, 2023-03-01 13:34:36.650
165.0, 28049.56174487612, 16721.474137481946, 0.0, -187500.02235174447, 0.0, 0.0, 0.0, -187500.02235174447, -0.304, 0.314, -0.906, 192.0, 0.0, 0.0, 0.0, 0.0, 0.0, 0.0, 0.0, 0.0, 0.0, 1.677706476658891E9, 0.0, 2023-03-01 13:34:36.658
166.0, 28083.067009814622, 16780.54979807732, 0.0, -187500.02235174447, 0.0, 0.0, 0.0, -187500.02235174447, -0.304, 0.314, -0.906, 192.0, 0.0, 0.0, 0.0, 0.0, 0.0, 0.0, 0.0, 0.0, 0.0, 1.677706476658909E9, 0.0, 2023-03-01 13:34:36.658
167.0, 28090.46543722933, 16773.486646829446, 0.0, -187500.02235174447, 0.0, 0.0, 0.0, -187500.02235174447, -0.3, 0.318, -0.906, 192.0, 246.0, 160.0, 9.0, 240.0, 227.0, 176.0, 0.0, 0.0, 0.0, 1.67770647666591E9, 0.0, 2023-03-01 13:34:36.665
168.0, 28075.199195766356, 16731.800643420298, 0.0, -187500.02235174447, 0.0, 0.0, 0.0, -187500.02235174447, -0.3, 0.318, -0.906, 192.0, 0.0, 0.0, 0.0, 0.0, 0.0, 0.0, 0.0, 0.0, 0.0, 1.677706476665923E9, 0.0, 2023-03-01 13:34:36.665
169.0, 28077.389666722975, 16741.590707491723, 0.0, -187500.02235174447, 0.0, 0.0, 0.0, -187500.02235174447, -0.3, 0.318, -0.906, 192.0, 0.0, 0.0, 0.0, 0.0, 0.0, 0.0, 0.0, 0.0, 0.0, 1.677706476673363E9, 0.0, 2023-03-01 13:34:36.673
170.0, 28103.161228079945, 16797.872400030185, 0.0, -187500.02235174447, 0.0, 0.0, 0.0, -187500.02235174447, -0.3, 0.318, -0.906, 192.0, 0.0, 0.0, 0.0, 0.0, 0.0, 0.0, 0.0, 0.0, 0.0, 1.677706476673373E9, 0.0, 2023-03-01 13:34:36.673
171.0, 28115.834667186104, 16805.47199314499, 0.0, -187500.02235174447, 0.0, 0.0, 0.0, -187500.02235174447, -0.3, 0.318, -0.906, 192.0, 0.0, 0.0, 0.0, 0.0, 0.0, 0.0, 0.0, 0.0, 0.0, 1.677706476681349E9, 0.0, 2023-03-01 13:34:36.681
172.0, 28099.674355944917, 16761.506111801402, 0.0, -187500.02235174447, 0.0, 0.0, 0.0, -187500.02235174447, -0.3, 0.318, -0.906, 192.0, 0.0, 0.0, 0.0, 0.0, 0.0, 0.0, 0.0, 0.0, 0.0, 1.677706476681362E9, 0.0, 2023-03-01 13:34:36.681
173.0, 28088.878463373003, 16753.437132053034, 0.0, -187500.02235174447, 0.0, 0.0, 0.0, -187500.02235174447, -0.3, 0.318, -0.906, 192.0, 0.0, 0.0, 0.0, 0.0, 0.0, 0.0, 0.0, 0.0, 0.0, 1.677706476689398E9, 0.0, 2023-03-01 13:34:36.689
174.0, 28115.007652641256, 16808.623589113187, 0.0, -187500.02235174447, 0.0, 0.0, 0.0, -187500.02235174447, -0.3, 0.318, -0.906, 192.0, 0.0, 0.0, 0.0, 0.0, 0.0, 0.0, 0.0, 0.0, 0.0, 1.677706476689418E9, 0.0, 2023-03-01 13:34:36.689
175.0, 28135.213629628855, 16830.349484723745, 0.0, -187500.02235174447, 0.0, 0.0, 0.0, -187500.02235174447, -0.3, 0.318, -0.906, 192.0, 0.0, 0.0, 0.0, 0.0, 0.0, 0.0, 0.0, 0.0, 0.0, 1.677706476695987E9, 0.0, 2023-03-01 13:34:36.695
176.0, 28125.445917301884, 16789.669309815086, 0.0, -187500.02235174447, 0.0, 0.0, 0.0, -187500.02235174447, -0.3, 0.318, -0.906, 192.0, 0.0, 0.0, 0.0, 0.0, 0.0, 0.0, 0.0, 0.0, 0.0, 1.677706476696002E9, 0.0, 2023-03-01 13:34:36.696
177.0, 28113.644196229485, 16766.334088603748, 0.0, -187500.02235174447, 0.0, 0.0, 0.0, -187500.02235174447, -0.298, 0.316, -0.896, 192.0, 246.0, 176.0, 9.0, 224.0, 228.0, 0.0, 0.0, 0.0, 0.0, 1.677706476703045E9, 0.0, 2023-03-01 13:34:36.703
178.0, 28139.79573724219, 16817.34076945076, 0.0, -187500.02235174447, 0.0, 0.0, 0.0, -187500.02235174447, -0.298, 0.316, -0.896, 192.0, 0.0, 0.0, 0.0, 0.0, 0.0, 0.0, 0.0, 0.0, 0.0, 1.677706476703059E9, 0.0, 2023-03-01 13:34:36.703
179.0, 28163.62269683155, 16846.53214770939, 0.0, -187500.02235174447, 0.0, 0.0, 0.0, -187500.02235174447, -0.298, 0.316, -0.896, 192.0, 0.0, 0.0, 0.0, 0.0, 0.0, 0.0, 0.0, 0.0, 0.0, 1.677706476711051E9, 0.0, 2023-03-01 13:34:36.711
180.0, 28162.05807471968, 16816.84903107274, 0.0, -187500.02235174447, 0.0, 0.0, 0.0, -187500.02235174447, -0.298, 0.316, -0.896, 192.0, 0.0, 0.0, 0.0, 0.0, 0.0, 0.0, 0.0, 0.0, 0.0, 1.67770647671813E9, 0.0, 2023-03-01 13:34:36.718
181.0, 28138.164059896953, 16788.641129570144, 0.0, -187500.02235174447, 0.0, 0.0, 0.0, -187500.02235174447, -0.298, 0.316, -0.896, 192.0, 0.0, 0.0, 0.0, 0.0, 0.0, 0.0, 0.0, 0.0, 0.0, 1.677706476718139E9, 0.0, 2023-03-01 13:34:36.718
182.0, 28153.273839148744, 16828.963676567517, 0.0, -187500.02235174447, 0.0, 0.0, 0.0, -187500.02235174447, -0.298, 0.316, -0.896, 192.0, 0.0, 0.0, 0.0, 0.0, 0.0, 0.0, 0.0, 0.0, 0.0, 1.67770647672579E9, 0.0, 2023-03-01 13:34:36.725
183.0, 28194.222234990866, 16875.187084101093, 0.0, -187500.02235174447, 0.0, 0.0, 0.0, -187500.02235174447, -0.298, 0.316, -0.896, 192.0, 0.0, 0.0, 0.0, 0.0, 0.0, 0.0, 0.0, 0.0, 0.0, 1.677706476725809E9, 0.0, 2023-03-01 13:34:36.725
184.0, 28181.05705750669, 16847.00153434295, 0.0, -187500.02235174447, 0.0, 0.0, 0.0, -187500.02235174447, -0.298, 0.316, -0.896, 192.0, 0.0, 0.0, 0.0, 0.0, 0.0, 0.0, 0.0, 0.0, 0.0, 1.677706476733655E9, 0.0, 2023-03-01 13:34:36.733
185.0, 28153.318542637655, 16809.204734469025, 0.0, -187500.02235174447, 0.0, 0.0, 0.0, -187500.02235174447, -0.298, 0.316, -0.896, 192.0, 0.0, 0.0, 0.0, 0.0, 0.0, 0.0, 0.0, 0.0, 0.0, 1.67770647673367E9, 0.0, 2023-03-01 13:34:36.733
186.0, 28162.281592164232, 16841.212432529024, 0.0, -187500.02235174447, 0.0, 0.0, 0.0, -187500.02235174447, -0.298, 0.316, -0.896, 192.0, 0.0, 0.0, 0.0, 0.0, 0.0, 0.0, 0.0, 0.0, 0.0, 1.677706476741673E9, 0.0, 2023-03-01 13:34:36.741
187.0, 28191.361211700587, 16889.894531952683, 0.0, -187500.02235174447, 0.0, 0.0, 0.0, -187500.02235174447, -0.3, 0.316, -0.896, 192.0, 246.0, 160.0, 9.0, 224.0, 228.0, 0.0, 0.0, 0.0, 0.0, 1.677706476741689E9, 0.0, 2023-03-01 13:34:36.741
188.0, 28186.399124431508, 16868.816836931328, 0.0, -187500.02235174447, 0.0, 0.0, 0.0, -187500.02235174447, -0.3, 0.316, -0.896, 192.0, 0.0, 0.0, 0.0, 0.0, 0.0, 0.0, 0.0, 0.0, 0.0, 1.677706476748298E9, 0.0, 2023-03-01 13:34:36.748
189.0, 28164.71793230986, 16824.71684512101, 0.0, -187500.02235174447, 0.0, 0.0, 0.0, -187500.02235174447, -0.3, 0.316, -0.896, 192.0, 0.0, 0.0, 0.0, 0.0, 0.0, 0.0, 0.0, 0.0, 0.0, 1.677706476748308E9, 0.0, 2023-03-01 13:34:36.748
190.0, 28174.95503127039, 16843.514662207923, 0.0, -187500.02235174447, 0.0, 0.0, 0.0, -187500.02235174447, -0.3, 0.316, -0.896, 192.0, 0.0, 0.0, 0.0, 0.0, 0.0, 0.0, 0.0, 0.0, 0.0, 1.67770647675632E9, 0.0, 2023-03-01 13:34:36.756
191.0, 28199.76546761578, 16893.604921532264, 0.0, -187500.02235174447, 0.0, 0.0, 0.0, -187500.02235174447, -0.3, 0.316, -0.896, 192.0, 0.0, 0.0, 0.0, 0.0, 0.0, 0.0, 0.0, 0.0, 0.0, 1.677706476756333E9, 0.0, 2023-03-01 13:34:36.756
192.0, 28204.30287174021, 16888.374613329725, 0.0, -187500.02235174447, 0.0, 0.0, 0.0, -187500.02235174447, -0.3, 0.316, -0.896, 192.0, 0.0, 0.0, 0.0, 0.0, 0.0, 0.0, 0.0, 0.0, 0.0, 1.677706476764327E9, 0.0, 2023-03-01 13:34:36.764
193.0, 28182.062886007177, 16844.140511052672, 0.0, -187500.02235174447, 0.0, 0.0, 0.0, -187500.02235174447, -0.3, 0.316, -0.896, 192.0, 0.0, 0.0, 0.0, 0.0, 0.0, 0.0, 0.0, 0.0, 0.0, 1.677706476764336E9, 0.0, 2023-03-01 13:34:36.764
194.0, 28177.99486851631, 16844.699304664053, 0.0, -187500.02235174447, 0.0, 0.0, 0.0, -187500.02235174447, -0.3, 0.316, -0.896, 192.0, 0.0, 0.0, 0.0, 0.0, 0.0, 0.0, 0.0, 0.0, 0.0, 1.677706476771597E9, 0.0, 2023-03-01 13:34:36.771
195.0, 28205.39810721852, 16895.86244772225, 0.0, -187500.02235174447, 0.0, 0.0, 0.0, -187500.02235174447, -0.3, 0.316, -0.896, 192.0, 0.0, 0.0, 0.0, 0.0, 0.0, 0.0, 0.0, 0.0, 0.0, 1.677706476777971E9, 0.0, 2023-03-01 13:34:36.777
196.0, 28210.87428461007, 16900.645721035686, 0.0, -187500.02235174447, 0.0, 0.0, 0.0, -187500.02235174447, -0.3, 0.316, -0.896, 192.0, 0.0, 0.0, 0.0, 0.0, 0.0, 0.0, 0.0, 0.0, 0.0, 1.677706476778001E9, 0.0, 2023-03-01 13:34:36.778
197.0, 28189.52836865525, 16858.602089715256, 0.0, -187500.02235174447, 0.0, 0.0, 0.0, -187500.02235174447, -0.306, 0.312, -0.896, 192.0, 246.0, 112.0, 9.0, 192.0, 228.0, 0.0, 0.0, 0.0, 0.0, 1.677706476786022E9, 0.0, 2023-03-01 13:34:36.786
198.0, 28173.546871369705, 16843.089979063272, 0.0, -187500.02235174447, 0.0, 0.0, 0.0, -187500.02235174447, -0.306, 0.312, -0.896, 192.0, 0.0, 0.0, 0.0, 0.0, 0.0, 0.0, 0.0, 0.0, 0.0, 1.677706476786037E9, 0.0, 2023-03-01 13:34:36.786
199.0, 28198.156142015, 16888.82164821883, 0.0, -187500.02235174447, 0.0, 0.0, 0.0, -187500.02235174447, -0.306, 0.312, -0.896, 192.0, 0.0, 0.0, 0.0, 0.0, 0.0, 0.0, 0.0, 0.0, 0.0, 1.677706476794038E9, 0.0, 2023-03-01 13:34:36.794
200.0, 28215.29993001222, 16909.295846139892, 0.0, -187500.02235174447, 0.0, 0.0, 0.0, -187500.02235174447, -0.306, 0.312, -0.896, 192.0, 0.0, 0.0, 0.0, 0.0, 0.0, 0.0, 0.0, 0.0, 0.0, 1.67770647679405E9, 0.0, 2023-03-01 13:34:36.794
201.0, 28195.63039489155, 16868.459209020046, 0.0, -187500.02235174447, 0.0, 0.0, 0.0, -187500.02235174447, -0.306, 0.312, -0.896, 192.0, 0.0, 0.0, 0.0, 0.0, 0.0, 0.0, 0.0, 0.0, 0.0, 1.677706476801223E9, 0.0, 2023-03-01 13:34:36.801
202.0, 28180.0512290062, 16842.01709532942, 0.0, -187500.02235174447, 0.0, 0.0, 0.0, -187500.02235174447, -0.306, 0.312, -0.896, 192.0, 0.0, 0.0, 0.0, 0.0, 0.0, 0.0, 0.0, 0.0, 0.0, 1.677706476801232E9, 0.0, 2023-03-01 13:34:36.801
203.0, 28210.11432529859, 16889.782773230407, 0.0, -187500.02235174447, 0.0, 0.0, 0.0, -187500.02235174447, -0.306, 0.312, -0.896, 192.0, 0.0, 0.0, 0.0, 0.0, 0.0, 0.0, 0.0, 0.0, 0.0, 1.677706476808704E9, 0.0, 2023-03-01 13:34:36.808
204.0, 28230.38735751955, 16922.21515443506, 0.0, -187500.02235174447, 0.0, 0.0, 0.0, -187500.02235174447, -0.306, 0.312, -0.896, 192.0, 0.0, 0.0, 0.0, 0.0, 0.0, 0.0, 0.0, 0.0, 0.0, 1.677706476808719E9, 0.0, 2023-03-01 13:34:36.808
205.0, 28210.67311890997, 16880.953834170563, 0.0, -187500.02235174447, 0.0, 0.0, 0.0, -187500.02235174447, -0.306, 0.312, -0.896, 192.0, 0.0, 0.0, 0.0, 0.0, 0.0, 0.0, 0.0, 0.0, 0.0, 1.677706476816795E9, 0.0, 2023-03-01 13:34:36.816
206.0, 28189.014278532777, 16842.28531626288, 0.0, -187500.02235174447, 0.0, 0.0, 0.0, -187500.02235174447, -0.306, 0.312, -0.896, 192.0, 0.0, 0.0, 0.0, 0.0, 0.0, 0.0, 0.0, 0.0, 0.0, 1.67770647681682E9, 0.0, 2023-03-01 13:34:36.816
207.0, 28197.39618270352, 16873.44364803358, 0.0, -187500.02235174447, 0.0, 0.0, 0.0, -187500.02235174447, -0.306, 0.312, -0.896, 192.0, 0.0, 0.0, 0.0, 0.0, 0.0, 0.0, 0.0, 0.0, 0.0, 1.677706476824566E9, 0.0, 2023-03-01 13:34:36.824
208.0, 28216.708089912903, 16911.352206629777, 0.0, -187500.02235174447, 0.0, 0.0, 0.0, -187500.02235174447, -0.306, 0.314, -0.9, 192.0, 246.0, 112.0, 9.0, 208.0, 227.0, 224.0, 0.0, 0.0, 0.0, 1.677706476824584E9, 0.0, 2023-03-01 13:34:36.824
209.0, 28206.225121763364, 16885.558293528353, 0.0, -187500.02235174447, 0.0, 0.0, 0.0, -187500.02235174447, -0.306, 0.314, -0.9, 192.0, 0.0, 0.0, 0.0, 0.0, 0.0, 0.0, 0.0, 0.0, 0.0, 1.677706476830892E9, 0.0, 2023-03-01 13:34:36.830
210.0, 28185.57210988666, 16840.988915084472, 0.0, -187500.02235174447, 0.0, 0.0, 0.0, -187500.02235174447, -0.306, 0.314, -0.9, 192.0, 0.0, 0.0, 0.0, 0.0, 0.0, 0.0, 0.0, 0.0, 0.0, 1.677706476838325E9, 0.0, 2023-03-01 13:34:36.838
211.0, 28195.362173958085, 16864.905281651652, 0.0, -187500.02235174447, 0.0, 0.0, 0.0, -187500.02235174447, -0.306, 0.314, -0.9, 192.0, 0.0, 0.0, 0.0, 0.0, 0.0, 0.0, 0.0, 0.0, 0.0, 1.677706476838339E9, 0.0, 2023-03-01 13:34:36.838
212.0, 28220.306720770208, 16913.207401419568, 0.0, -187500.02235174447, 0.0, 0.0, 0.0, -187500.02235174447, -0.306, 0.314, -0.9, 192.0, 0.0, 0.0, 0.0, 0.0, 0.0, 0.0, 0.0, 0.0, 0.0, 1.677706476846307E9, 0.0, 2023-03-01 13:34:36.846
213.0, 28211.075450310167, 16895.19189538859, 0.0, -187500.02235174447, 0.0, 0.0, 0.0, -187500.02235174447, -0.306, 0.314, -0.9, 192.0, 0.0, 0.0, 0.0, 0.0, 0.0, 0.0, 0.0, 0.0, 0.0, 1.677706476846315E9, 0.0, 2023-03-01 13:34:36.846
214.0, 28188.67900236595, 16848.14147331017, 0.0, -187500.02235174447, 0.0, 0.0, 0.0, -187500.02235174447, -0.306, 0.314, -0.9, 192.0, 0.0, 0.0, 0.0, 0.0, 0.0, 0.0, 0.0, 0.0, 0.0, 1.6777064768543E9, 0.0, 2023-03-01 13:34:36.854
215.0, 28197.440886192428, 16865.01704037393, 0.0, -187500.02235174447, 0.0, 0.0, 0.0, -187500.02235174447, -0.306, 0.314, -0.9, 192.0, 0.0, 0.0, 0.0, 0.0, 0.0, 0.0, 0.0, 0.0, 0.0, 1.677706476854322E9, 0.0, 2023-03-01 13:34:36.854
216.0, 28218.317415513688, 16909.87699149573, 0.0, -187500.02235174447, 0.0, 0.0, 0.0, -187500.02235174447, -0.306, 0.314, -0.9, 192.0, 0.0, 0.0, 0.0, 0.0, 0.0, 0.0, 0.0, 0.0, 0.0, 1.677706476860839E9, 0.0, 2023-03-01 13:34:36.860
217.0, 28213.891770111535, 16894.76721224394, 0.0, -187500.02235174447, 0.0, 0.0, 0.0, -187500.02235174447, -0.306, 0.314, -0.9, 192.0, 0.0, 0.0, 0.0, 0.0, 0.0, 0.0, 0.0, 0.0, 0.0, 1.677706476860854E9, 0.0, 2023-03-01 13:34:36.860
218.0, 28184.231005219342, 16845.61572618672, 0.0, -187500.02235174447, 0.0, 0.0, 0.0, -187500.02235174447, -0.304, 0.314, -0.898, 192.0, 246.0, 128.0, 9.0, 208.0, 227.0, 240.0, 0.0, 0.0, 0.0, 1.67770647686898E9, 0.0, 2023-03-01 13:34:36.868
219.0, 28177.592537116117, 16842.397074985158, 0.0, -187500.02235174447, 0.0, 0.0, 0.0, -187500.02235174447, -0.304, 0.314, -0.898, 192.0, 0.0, 0.0, 0.0, 0.0, 0.0, 0.0, 0.0, 0.0, 0.0, 1.677706476868995E9, 0.0, 2023-03-01 13:34:36.868
220.0, 28205.733383385348, 16895.951854700073, 0.0, -187500.02235174447, 0.0, 0.0, 0.0, -187500.02235174447, -0.304, 0.314, -0.898, 192.0, 0.0, 0.0, 0.0, 0.0, 0.0, 0.0, 0.0, 0.0, 0.0, 1.677706476876968E9, 0.0, 2023-03-01 13:34:36.876
221.0, 28217.378642246564, 16908.222962406035, 0.0, -187500.02235174447, 0.0, 0.0, 0.0, -187500.02235174447, -0.304, 0.314, -0.898, 192.0, 0.0, 0.0, 0.0, 0.0, 0.0, 0.0, 0.0, 0.0, 0.0, 1.677706476876979E9, 0.0, 2023-03-01 13:34:36.876
222.0, 28208.370889231075, 16869.934424154097, 0.0, -187500.02235174447, 0.0, 0.0, 0.0, -187500.02235174447, -0.304, 0.314, -0.898, 192.0, 0.0, 0.0, 0.0, 0.0, 0.0, 0.0, 0.0, 0.0, 0.0, 1.677706476884121E9, 0.0, 2023-03-01 13:34:36.884
223.0, 28216.43986897944, 16870.53792125439, 0.0, -187500.02235174447, 0.0, 0.0, 0.0, -187500.02235174447, -0.304, 0.314, -0.898, 192.0, 0.0, 0.0, 0.0, 0.0, 0.0, 0.0, 0.0, 0.0, 0.0, 1.67770647688413E9, 0.0, 2023-03-01 13:34:36.884
224.0, 28239.171593090487, 16918.48241311102, 0.0, -187500.02235174447, 0.0, 0.0, 0.0, -187500.02235174447, -0.304, 0.314, -0.898, 192.0, 0.0, 0.0, 0.0, 0.0, 0.0, 0.0, 0.0, 0.0, 0.0, 1.677706476890527E9, 0.0, 2023-03-01 13:34:36.890
225.0, 28228.263941796296, 16915.219058420545, 0.0, -187500.02235174447, 0.0, 0.0, 0.0, -187500.02235174447, -0.304, 0.314, -0.898, 192.0, 0.0, 0.0, 0.0, 0.0, 0.0, 0.0, 0.0, 0.0, 0.0, 1.677706476898589E9, 0.0, 2023-03-01 13:34:36.898
226.0, 28196.859740836593, 16861.843092661275, 0.0, -187500.02235174447, 0.0, 0.0, 0.0, -187500.02235174447, -0.304, 0.314, -0.898, 192.0, 0.0, 0.0, 0.0, 0.0, 0.0, 0.0, 0.0, 0.0, 0.0, 1.677706476898604E9, 0.0, 2023-03-01 13:34:36.898
227.0, 28191.472970422863, 16846.219223287015, 0.0, -187500.02235174447, 0.0, 0.0, 0.0, -187500.02235174447, -0.304, 0.314, -0.898, 192.0, 0.0, 0.0, 0.0, 0.0, 0.0, 0.0, 0.0, 0.0, 0.0, 1.677706476906561E9, 0.0, 2023-03-01 13:34:36.906
228.0, 28216.909255613, 16895.929502955616, 0.0, -187500.02235174447, 0.0, 0.0, 0.0, -187500.02235174447, -0.3, 0.314, -0.896, 192.0, 246.0, 160.0, 9.0, 208.0, 228.0, 0.0, 0.0, 0.0, 0.0, 1.677706476906597E9, 0.0, 2023-03-01 13:34:36.906
229.0, 28234.1648023325, 16924.919715514152, 0.0, -187500.02235174447, 0.0, 0.0, 0.0, -187500.02235174447, -0.3, 0.314, -0.896, 192.0, 0.0, 0.0, 0.0, 0.0, 0.0, 0.0, 0.0, 0.0, 0.0, 1.677706476915271E9, 0.0, 2023-03-01 13:34:36.915
230.0, 28221.938398115446, 16891.86148546475, 0.0, -187500.02235174447, 0.0, 0.0, 0.0, -187500.02235174447, -0.3, 0.314, -0.896, 192.0, 0.0, 0.0, 0.0, 0.0, 0.0, 0.0, 0.0, 0.0, 0.0, 1.677706476915285E9, 0.0, 2023-03-01 13:34:36.915
231.0, 28201.44184844993, 16857.931537381595, 0.0, -187500.02235174447, 0.0, 0.0, 0.0, -187500.02235174447, -0.3, 0.314, -0.896, 192.0, 0.0, 0.0, 0.0, 0.0, 0.0, 0.0, 0.0, 0.0, 0.0, 1.67770647692154E9, 0.0, 2023-03-01 13:34:36.921
232.0, 28215.948130601424, 16892.241465120493, 0.0, -187500.02235174447, 0.0, 0.0, 0.0, -187500.02235174447, -0.3, 0.314, -0.896, 192.0, 0.0, 0.0, 0.0, 0.0, 0.0, 0.0, 0.0, 0.0, 0.0, 1.67770647692155E9, 0.0, 2023-03-01 13:34:36.921
233.0, 28245.340674560153, 16934.776834818942, 0.0, -187500.02235174447, 0.0, 0.0, 0.0, -187500.02235174447, -0.3, 0.314, -0.896, 192.0, 0.0, 0.0, 0.0, 0.0, 0.0, 0.0, 0.0, 0.0, 0.0, 1.677706476929195E9, 0.0, 2023-03-01 13:34:36.929
234.0, 28232.73429068736, 16906.457174594067, 0.0, -187500.02235174447, 0.0, 0.0, 0.0, -187500.02235174447, -0.3, 0.314, -0.896, 192.0, 0.0, 0.0, 0.0, 0.0, 0.0, 0.0, 0.0, 0.0, 0.0, 1.677706476929204E9, 0.0, 2023-03-01 13:34:36.929
235.0, 28208.706165397904, 16860.4796362495, 0.0, -187500.02235174447, 0.0, 0.0, 0.0, -187500.02235174447, -0.3, 0.314, -0.896, 192.0, 0.0, 0.0, 0.0, 0.0, 0.0, 0.0, 0.0, 0.0, 0.0, 1.677706476937196E9, 0.0, 2023-03-01 13:34:36.937
236.0, 28215.67990966796, 16882.451401049067, 0.0, -187500.02235174447, 0.0, 0.0, 0.0, -187500.02235174447, -0.3, 0.314, -0.896, 192.0, 0.0, 0.0, 0.0, 0.0, 0.0, 0.0, 0.0, 0.0, 0.0, 1.677706476937212E9, 0.0, 2023-03-01 13:34:36.937
237.0, 28243.865459426102, 16930.462948139066, 0.0, -187500.02235174447, 0.0, 0.0, 0.0, -187500.02235174447, -0.3, 0.314, -0.896, 192.0, 0.0, 0.0, 0.0, 0.0, 0.0, 0.0, 0.0, 0.0, 0.0, 1.677706476943798E9, 0.0, 2023-03-01 13:34:36.943
238.0, 28240.892677413547, 16912.492145597, 0.0, -187500.02235174447, 0.0, 0.0, 0.0, -187500.02235174447, -0.306, 0.316, -0.904, 192.0, 246.0, 112.0, 9.0, 224.0, 227.0, 192.0, 0.0, 0.0, 0.0, 1.67770647694382E9, 0.0, 2023-03-01 13:34:36.943
239.0, 28213.35532824461, 16860.010249615938, 0.0, -187500.02235174447, 0.0, 0.0, 0.0, -187500.02235174447, -0.306, 0.316, -0.904, 192.0, 0.0, 0.0, 0.0, 0.0, 0.0, 0.0, 0.0, 0.0, 0.0, 1.677706476950722E9, 0.0, 2023-03-01 13:34:36.950
240.0, 28210.53900844324, 16870.403810787655, 0.0, -187500.02235174447, 0.0, 0.0, 0.0, -187500.02235174447, -0.306, 0.316, -0.904, 192.0, 0.0, 0.0, 0.0, 0.0, 0.0, 0.0, 0.0, 0.0, 0.0, 1.677706476950738E9, 0.0, 2023-03-01 13:34:36.950
241.0, 28237.606970978617, 16925.07617772534, 0.0, -187500.02235174447, 0.0, 0.0, 0.0, -187500.02235174447, -0.306, 0.316, -0.904, 192.0, 0.0, 0.0, 0.0, 0.0, 0.0, 0.0, 0.0, 0.0, 0.0, 1.677706476958869E9, 0.0, 2023-03-01 13:34:36.958
242.0, 28246.950000160934, 16925.098529469793, 0.0, -187500.02235174447, 0.0, 0.0, 0.0, -187500.02235174447, -0.306, 0.316, -0.904, 192.0, 0.0, 0.0, 0.0, 0.0, 0.0, 0.0, 0.0, 0.0, 0.0, 1.677706476965957E9, 0.0, 2023-03-01 13:34:36.965
243.0, 28223.92770337197, 16873.220130589027, 0.0, -187500.02235174447, 0.0, 0.0, 0.0, -187500.02235174447, -0.306, 0.316, -0.904, 192.0, 0.0, 0.0, 0.0, 0.0, 0.0, 0.0, 0.0, 0.0, 0.0, 1.677706476965969E9, 0.0, 2023-03-01 13:34:36.965
244.0, 28211.76835438828, 16861.70898219454, 0.0, -187500.02235174447, 0.0, 0.0, 0.0, -187500.02235174447, -0.306, 0.316, -0.904, 192.0, 0.0, 0.0, 0.0, 0.0, 0.0, 0.0, 0.0, 0.0, 0.0, 1.677706476973485E9, 0.0, 2023-03-01 13:34:36.973
245.0, 28229.314473785696, 16913.073290952838, 0.0, -187500.02235174447, 0.0, 0.0, 0.0, -187500.02235174447, -0.306, 0.316, -0.904, 192.0, 0.0, 0.0, 0.0, 0.0, 0.0, 0.0, 0.0, 0.0, 0.0, 1.677706476973494E9, 0.0, 2023-03-01 13:34:36.973
246.0, 28242.72552045888, 16927.93720101562, 0.0, -187500.02235174447, 0.0, 0.0, 0.0, -187500.02235174447, -0.306, 0.316, -0.904, 192.0, 0.0, 0.0, 0.0, 0.0, 0.0, 0.0, 0.0, 0.0, 0.0, 1.677706476981482E9, 0.0, 2023-03-01 13:34:36.981
247.0, 28229.24741855233, 16885.804162717362, 0.0, -187500.02235174447, 0.0, 0.0, 0.0, -187500.02235174447, -0.306, 0.316, -0.904, 192.0, 0.0, 0.0, 0.0, 0.0, 0.0, 0.0, 0.0, 0.0, 0.0, 1.677706476981509E9, 0.0, 2023-03-01 13:34:36.981
248.0, 28217.713918413392, 16867.498084008468, 0.0, -187500.02235174447, 0.0, 0.0, 0.0, -187500.02235174447, -0.308, 0.32, -0.898, 192.0, 246.0, 96.0, 10.0, 0.0, 227.0, 240.0, 0.0, 0.0, 0.0, 1.677706476989399E9, 0.0, 2023-03-01 13:34:36.989
249.0, 28239.10453785712, 16914.995540975993, 0.0, -187500.02235174447, 0.0, 0.0, 0.0, -187500.02235174447, -0.308, 0.32, -0.898, 192.0, 0.0, 0.0, 0.0, 0.0, 0.0, 0.0, 0.0, 0.0, 0.0, 1.677706476989413E9, 0.0, 2023-03-01 13:34:36.989
250.0, 28257.723540988394, 16940.364770932767, 0.0, -187500.02235174447, 0.0, 0.0, 0.0, -187500.02235174447, -0.308, 0.32, -0.898, 192.0, 0.0, 0.0, 0.0, 0.0, 0.0, 0.0, 0.0, 0.0, 0.0, 1.677706476995999E9, 0.0, 2023-03-01 13:34:36.995
251.0, 28242.233782080864, 16899.438726835102, 0.0, -187500.02235174447, 0.0, 0.0, 0.0, -187500.02235174447, -0.308, 0.32, -0.898, 192.0, 0.0, 0.0, 0.0, 0.0, 0.0, 0.0, 0.0, 0.0, 0.0, 1.677706476996014E9, 0.0, 2023-03-01 13:34:36.996
252.0, 28224.039462094246, 16869.219168331525, 0.0, -187500.02235174447, 0.0, 0.0, 0.0, -187500.02235174447, -0.308, 0.32, -0.898, 192.0, 0.0, 0.0, 0.0, 0.0, 0.0, 0.0, 0.0, 0.0, 0.0, 1.677706477004146E9, 0.0, 2023-03-01 13:34:37.004
