%OpenBCI Raw EEG Data
%Number of channels = 8
%Sample Rate = 250 Hz
%Board = OpenBCI_GUI$BoardCytonSerial
Sample Index, EXG Channel 0, EXG Channel 1, EXG Channel 2, EXG Channel 3, EXG Channel 4, EXG Channel 5, EXG Channel 6, EXG Channel 7, Accel Channel 0, Accel Channel 1, Accel Channel 2, Other, Other, Other, Other, Other, Other, Other, Analog Channel 0, Analog Channel 1, Analog Channel 2, Timestamp, Other, Timestamp (Formatted)
117.0, 14290.341948311561, 17327.42992966532, 0.0, 0.0, 0.0, -187500.02235174447, -187500.02235174447, 0.0, 0.0, 0.0, 0.0, 192.0, 0.0, 0.0, 0.0, 0.0, 0.0, 0.0, 0.0, 0.0, 0.0, 1.677704066436055E9, 0.0, 2023-03-01 12:54:26.436
118.0, 14289.961968655822, 17330.179194233322, 0.0, 0.0, 0.0, -187500.02235174447, -187500.02235174447, 0.0, 0.0, 0.0, 0.0, 192.0, 0.0, 0.0, 0.0, 0.0, 0.0, 0.0, 0.0, 0.0, 0.0, 1.677704066436123E9, 0.0, 2023-03-01 12:54:26.436
119.0, 14285.759840698223, 17320.85851679546, 0.0, 0.0, 0.0, -187500.02235174447, -187500.02235174447, 0.0, 0.0, 0.0, 0.0, 192.0, 0.0, 0.0, 0.0, 0.0, 0.0, 0.0, 0.0, 0.0, 0.0, 1.677704066436131E9, 0.0, 2023-03-01 12:54:26.436
120.0, 14283.211741830319, 17311.984874246704, 0.0, 0.0, 0.0, -187500.02235174447, -187500.02235174447, 0.0, 0.0, 0.0, 0.0, 192.0, 0.0, 0.0, 0.0, 0.0, 0.0, 0.0, 0.0, 0.0, 0.0, 1.677704066436138E9, 0.0, 2023-03-01 12:54:26.436
121.0, 14296.287512336674, 17320.791461562094, 0.0, 0.0, 0.0, -187500.02235174447, -187500.02235174447, 0.0, 0.0, 0.0, 0.0, 192.0, 0.0, 0.0, 0.0, 0.0, 0.0, 0.0, 0.0, 0.0, 0.0, 1.677704066436145E9, 0.0, 2023-03-01 12:54:26.436
0.0, 0.0, 0.0, 0.0, 0.0, 0.0, 0.0, 0.0, 0.0, 0.0, 0.0, 0.0, 192.0, 0.0, 0.0, 0.0, 0.0, 0.0, 0.0, 0.0, 0.0, 0.0, 1.677704066510465E9, 0.0, 2023-03-01 12:54:26.510
1.0, 18578.76999125123, 20994.457125002995, 0.0, 0.0, 0.0, -187500.02235174447, -187500.02235174447, 0.0, 0.424, -0.91, -0.168, 192.0, 13.0, 64.0, 227.0, 144.0, 250.0, 192.0, 0.0, 0.0, 0.0, 1.677704066519328E9, 0.0, 2023-03-01 12:54:26.519
2.0, 18585.900197732473, 20989.29387203382, 0.0, 0.0, 0.0, -187500.02235174447, -187500.02235174447, 0.0, 0.424, -0.91, -0.168, 192.0, 0.0, 0.0, 0.0, 0.0, 0.0, 0.0, 0.0, 0.0, 0.0, 1.677704066526902E9, 0.0, 2023-03-01 12:54:26.526
3.0, 18583.799133753673, 20987.841008644227, 0.0, 0.0, 0.0, -187500.02235174447, -187500.02235174447, 0.0, 0.424, -0.91, -0.168, 192.0, 0.0, 0.0, 0.0, 0.0, 0.0, 0.0, 0.0, 0.0, 0.0, 1.677704066526911E9, 0.0, 2023-03-01 12:54:26.526
4.0, 18579.798171496175, 20984.71176442048, 0.0, 0.0, 0.0, -187500.02235174447, -187500.02235174447, 0.0, 0.424, -0.91, -0.168, 192.0, 0.0, 0.0, 0.0, 0.0, 0.0, 0.0, 0.0, 0.0, 0.0, 1.677704066534211E9, 0.0, 2023-03-01 12:54:26.534
5.0, 18577.42888658391, 20984.264729531376, 0.0, 0.0, 0.0, -187500.02235174447, -187500.02235174447, 0.0, 0.424, -0.91, -0.168, 192.0, 0.0, 0.0, 0.0, 0.0, 0.0, 0.0, 0.0, 0.0, 0.0, 1.677704066534233E9, 0.0, 2023-03-01 12:54:26.534
6.0, 18587.464819844346, 20992.19959881301, 0.0, 0.0, 0.0, -187500.02235174447, -187500.02235174447, 0.0, 0.424, -0.91, -0.168, 192.0, 0.0, 0.0, 0.0, 0.0, 0.0, 0.0, 0.0, 0.0, 0.0, 1.677704066542181E9, 0.0, 2023-03-01 12:54:26.542
7.0, 18591.599892568578, 20998.256921560398, 0.0, 0.0, 0.0, -187500.02235174447, -187500.02235174447, 0.0, 0.424, -0.91, -0.168, 192.0, 0.0, 0.0, 0.0, 0.0, 0.0, 0.0, 0.0, 0.0, 0.0, 1.677704066542198E9, 0.0, 2023-03-01 12:54:26.542
8.0, 18593.030404213718, 21000.492096005928, 0.0, 0.0, 0.0, -187500.02235174447, -187500.02235174447, 0.0, 0.498, -0.856, -0.226, 192.0, 15.0, 144.0, 229.0, 64.0, 248.0, 240.0, 0.0, 0.0, 0.0, 1.677704066548739E9, 0.0, 2023-03-01 12:54:26.548
9.0, 18595.86907575954, 21000.648558217115, 0.0, 0.0, 0.0, -187500.02235174447, -187500.02235174447, 0.0, 0.498, -0.856, -0.226, 192.0, 0.0, 0.0, 0.0, 0.0, 0.0, 0.0, 0.0, 0.0, 0.0, 1.677704066548757E9, 0.0, 2023-03-01 12:54:26.548
10.0, 18598.685395560908, 21003.24136057393, 0.0, 0.0, 0.0, -187500.02235174447, -187500.02235174447, 0.0, 0.498, -0.856, -0.226, 192.0, 0.0, 0.0, 0.0, 0.0, 0.0, 0.0, 0.0, 0.0, 0.0, 1.677704066556738E9, 0.0, 2023-03-01 12:54:26.556
11.0, 18591.01874721274, 20995.954691881503, 0.0, 0.0, 0.0, -187500.02235174447, -187500.02235174447, 0.0, 0.498, -0.856, -0.226, 192.0, 0.0, 0.0, 0.0, 0.0, 0.0, 0.0, 0.0, 0.0, 0.0, 1.677704066556752E9, 0.0, 2023-03-01 12:54:26.556
12.0, 18585.20729365436, 20990.92554937906, 0.0, 0.0, 0.0, -187500.02235174447, -187500.02235174447, 0.0, 0.498, -0.856, -0.226, 192.0, 0.0, 0.0, 0.0, 0.0, 0.0, 0.0, 0.0, 0.0, 0.0, 1.677704066564755E9, 0.0, 2023-03-01 12:54:26.564
13.0, 18591.175209423927, 20996.73700293744, 0.0, 0.0, 0.0, -187500.02235174447, -187500.02235174447, 0.0, 0.498, -0.856, -0.226, 192.0, 0.0, 0.0, 0.0, 0.0, 0.0, 0.0, 0.0, 0.0, 0.0, 1.677704066564771E9, 0.0, 2023-03-01 12:54:26.564
14.0, 18592.940997235895, 20999.508619249897, 0.0, 0.0, 0.0, -187500.02235174447, -187500.02235174447, 0.0, 0.498, -0.856, -0.226, 192.0, 0.0, 0.0, 0.0, 0.0, 0.0, 0.0, 0.0, 0.0, 0.0, 1.677704066571306E9, 0.0, 2023-03-01 12:54:26.571
15.0, 18591.510485590756, 21000.1568198391, 0.0, 0.0, 0.0, -187500.02235174447, -187500.02235174447, 0.0, 0.498, -0.856, -0.226, 192.0, 0.0, 0.0, 0.0, 0.0, 0.0, 0.0, 0.0, 0.0, 0.0, 1.677704066571318E9, 0.0, 2023-03-01 12:54:26.571
16.0, 18587.174247166426, 20994.613587214182, 0.0, 0.0, 0.0, -187500.02235174447, -187500.02235174447, 0.0, 0.498, -0.856, -0.226, 192.0, 0.0, 0.0, 0.0, 0.0, 0.0, 0.0, 0.0, 0.0, 0.0, 1.677704066578383E9, 0.0, 2023-03-01 12:54:26.578
17.0, 18591.599892568578, 20998.748659938414, 0.0, 0.0, 0.0, -187500.02235174447, -187500.02235174447, 0.0, 0.498, -0.856, -0.226, 192.0, 0.0, 0.0, 0.0, 0.0, 0.0, 0.0, 0.0, 0.0, 0.0, 1.677704066586349E9, 0.0, 2023-03-01 12:54:26.586
18.0, 18594.2373984143, 20998.838066916236, 0.0, 0.0, 0.0, -187500.02235174447, -187500.02235174447, 0.0, 0.544, -0.834, -0.274, 192.0, 17.0, 0.0, 229.0, 240.0, 247.0, 112.0, 0.0, 0.0, 0.0, 1.677704066586368E9, 0.0, 2023-03-01 12:54:26.586
19.0, 18600.987625239806, 21004.336596052242, 0.0, 0.0, 0.0, -187500.02235174447, -187500.02235174447, 0.0, 0.544, -0.834, -0.274, 192.0, 0.0, 0.0, 0.0, 0.0, 0.0, 0.0, 0.0, 0.0, 0.0, 1.677704066594448E9, 0.0, 2023-03-01 12:54:26.594
20.0, 18597.009014726762, 20995.530008736852, 0.0, 0.0, 0.0, -187500.02235174447, -187500.02235174447, 0.0, 0.544, -0.834, -0.274, 192.0, 0.0, 0.0, 0.0, 0.0, 0.0, 0.0, 0.0, 0.0, 0.0, 1.677704066594464E9, 0.0, 2023-03-01 12:54:26.594
21.0, 18605.7932502977, 21010.43862228854, 0.0, 0.0, 0.0, -187500.02235174447, -187500.02235174447, 0.0, 0.544, -0.834, -0.274, 192.0, 0.0, 0.0, 0.0, 0.0, 0.0, 0.0, 0.0, 0.0, 0.0, 1.677704066601071E9, 0.0, 2023-03-01 12:54:26.601
22.0, 18602.50754386277, 21022.21799161649, 0.0, 0.0, 0.0, -187500.02235174447, -187500.02235174447, 0.0, 0.544, -0.834, -0.274, 192.0, 0.0, 0.0, 0.0, 0.0, 0.0, 0.0, 0.0, 0.0, 0.0, 1.677704066601084E9, 0.0, 2023-03-01 12:54:26.601
23.0, 18611.984683511815, 21015.333654324255, 0.0, 0.0, 0.0, -187500.02235174447, -187500.02235174447, 0.0, 0.544, -0.834, -0.274, 192.0, 0.0, 0.0, 0.0, 0.0, 0.0, 0.0, 0.0, 0.0, 0.0, 1.677704066609094E9, 0.0, 2023-03-01 12:54:26.609
24.0, 18612.252904445282, 21003.777802440858, 0.0, 0.0, 0.0, -187500.02235174447, -187500.02235174447, 0.0, 0.544, -0.834, -0.274, 192.0, 0.0, 0.0, 0.0, 0.0, 0.0, 0.0, 0.0, 0.0, 0.0, 1.677704066609107E9, 0.0, 2023-03-01 12:54:26.609
25.0, 18607.179058453927, 21010.192753099534, 0.0, 0.0, 0.0, -187500.02235174447, -187500.02235174447, 0.0, 0.544, -0.834, -0.274, 192.0, 0.0, 0.0, 0.0, 0.0, 0.0, 0.0, 0.0, 0.0, 0.0, 1.677704066617567E9, 0.0, 2023-03-01 12:54:26.617
26.0, 18598.52893334972, 21000.96148263949, 0.0, 0.0, 0.0, -187500.02235174447, -187500.02235174447, 0.0, 0.544, -0.834, -0.274, 192.0, 0.0, 0.0, 0.0, 0.0, 0.0, 0.0, 0.0, 0.0, 0.0, 1.677704066617576E9, 0.0, 2023-03-01 12:54:26.617
27.0, 18599.512410105755, 21001.922607651068, 0.0, 0.0, 0.0, -187500.02235174447, -187500.02235174447, 0.0, 0.544, -0.834, -0.274, 192.0, 0.0, 0.0, 0.0, 0.0, 0.0, 0.0, 0.0, 0.0, 0.0, 1.677704066624205E9, 0.0, 2023-03-01 12:54:26.624
28.0, 18607.894314276495, 21005.856514675204, 0.0, 0.0, 0.0, -187500.02235174447, -187500.02235174447, 0.0, 0.5640000000000001, -0.8200000000000001, -0.296, 192.0, 17.0, 160.0, 230.0, 96.0, 246.0, 192.0, 0.0, 0.0, 0.0, 1.677704066624259E9, 0.0, 2023-03-01 12:54:26.624
29.0, 18598.4395263719, 20998.703956449506, 0.0, 0.0, 0.0, -187500.02235174447, -187500.02235174447, 0.0, 0.5640000000000001, -0.8200000000000001, -0.296, 192.0, 0.0, 0.0, 0.0, 0.0, 0.0, 0.0, 0.0, 0.0, 0.0, 1.677704066631703E9, 0.0, 2023-03-01 12:54:26.631
30.0, 18603.78159329672, 21001.050889617312, 0.0, 0.0, 0.0, -187500.02235174447, -187500.02235174447, 0.0, 0.5640000000000001, -0.8200000000000001, -0.296, 192.0, 0.0, 0.0, 0.0, 0.0, 0.0, 0.0, 0.0, 0.0, 0.0, 1.677704066631721E9, 0.0, 2023-03-01 12:54:26.631
31.0, 18604.20627644137, 21001.788497184338, 0.0, 0.0, 0.0, -187500.02235174447, -187500.02235174447, 0.0, 0.5640000000000001, -0.8200000000000001, -0.296, 192.0, 0.0, 0.0, 0.0, 0.0, 0.0, 0.0, 0.0, 0.0, 0.0, 1.677704066638755E9, 0.0, 2023-03-01 12:54:26.638
32.0, 18597.120773449038, 21003.129601851655, 0.0, 0.0, 0.0, -187500.02235174447, -187500.02235174447, 0.0, 0.5640000000000001, -0.8200000000000001, -0.296, 192.0, 0.0, 0.0, 0.0, 0.0, 0.0, 0.0, 0.0, 0.0, 0.0, 1.677704066646717E9, 0.0, 2023-03-01 12:54:26.646
33.0, 18593.343328636092, 21008.87400017667, 0.0, 0.0, 0.0, -187500.02235174447, -187500.02235174447, 0.0, 0.5640000000000001, -0.8200000000000001, -0.296, 192.0, 0.0, 0.0, 0.0, 0.0, 0.0, 0.0, 0.0, 0.0, 0.0, 1.677704066646727E9, 0.0, 2023-03-01 12:54:26.646
34.0, 18607.40257589848, 21023.760261983905, 0.0, 0.0, 0.0, -187500.02235174447, -187500.02235174447, 0.0, 0.5640000000000001, -0.8200000000000001, -0.296, 192.0, 0.0, 0.0, 0.0, 0.0, 0.0, 0.0, 0.0, 0.0, 0.0, 1.677704066653897E9, 0.0, 2023-03-01 12:54:26.653
35.0, 18611.135317222514, 21011.958540911502, 0.0, 0.0, 0.0, -187500.02235174447, -187500.02235174447, 0.0, 0.5640000000000001, -0.8200000000000001, -0.296, 192.0, 0.0, 0.0, 0.0, 0.0, 0.0, 0.0, 0.0, 0.0, 0.0, 1.677704066653912E9, 0.0, 2023-03-01 12:54:26.653
36.0, 18573.24911037077, 20956.973249551447, 0.0, 0.0, 0.0, -187500.02235174447, -187500.02235174447, 0.0, 0.5640000000000001, -0.8200000000000001, -0.296, 192.0, 0.0, 0.0, 0.0, 0.0, 0.0, 0.0, 0.0, 0.0, 0.0, 1.677704066661345E9, 0.0, 2023-03-01 12:54:26.661
37.0, 18542.738979189275, 20931.492260872397, 0.0, 0.0, 0.0, -187500.02235174447, -187500.02235174447, 0.0, 0.5640000000000001, -0.8200000000000001, -0.296, 192.0, 0.0, 0.0, 0.0, 0.0, 0.0, 0.0, 0.0, 0.0, 0.0, 1.677704066661355E9, 0.0, 2023-03-01 12:54:26.661
38.0, 18539.98971462127, 20935.113243474156, 0.0, 0.0, 0.0, -187500.02235174447, -187500.02235174447, 0.0, 0.56, -0.8260000000000001, -0.306, 192.0, 17.0, 128.0, 230.0, 48.0, 246.0, 112.0, 0.0, 0.0, 0.0, 1.677704066669413E9, 0.0, 2023-03-01 12:54:26.669
39.0, 18529.99848484975, 20928.787699793305, 0.0, 0.0, 0.0, -187500.02235174447, -187500.02235174447, 0.0, 0.56, -0.8260000000000001, -0.306, 192.0, 0.0, 0.0, 0.0, 0.0, 0.0, 0.0, 0.0, 0.0, 0.0, 1.677704066669423E9, 0.0, 2023-03-01 12:54:26.669
40.0, 18504.830420593076, 20900.84801922417, 0.0, 0.0, 0.0, -187500.02235174447, -187500.02235174447, 0.0, 0.56, -0.8260000000000001, -0.306, 192.0, 0.0, 0.0, 0.0, 0.0, 0.0, 0.0, 0.0, 0.0, 0.0, 1.67770406667739E9, 0.0, 2023-03-01 12:54:26.677
41.0, 18493.81101057661, 20883.19014110448, 0.0, 0.0, 0.0, -187500.02235174447, -187500.02235174447, 0.0, 0.56, -0.8260000000000001, -0.306, 192.0, 0.0, 0.0, 0.0, 0.0, 0.0, 0.0, 0.0, 0.0, 0.0, 1.677704066677409E9, 0.0, 2023-03-01 12:54:26.677
42.0, 18493.632196620965, 20886.051164394758, 0.0, 0.0, 0.0, -187500.02235174447, -187500.02235174447, 0.0, 0.56, -0.8260000000000001, -0.306, 192.0, 0.0, 0.0, 0.0, 0.0, 0.0, 0.0, 0.0, 0.0, 0.0, 1.677704066683999E9, 0.0, 2023-03-01 12:54:26.683
43.0, 18486.725507584277, 20880.731449214396, 0.0, 0.0, 0.0, -187500.02235174447, -187500.02235174447, 0.0, 0.56, -0.8260000000000001, -0.306, 192.0, 0.0, 0.0, 0.0, 0.0, 0.0, 0.0, 0.0, 0.0, 0.0, 1.677704066684014E9, 0.0, 2023-03-01 12:54:26.684
44.0, 18480.914054025896, 20863.207681561435, 0.0, 0.0, 0.0, -187500.02235174447, -187500.02235174447, 0.0, 0.56, -0.8260000000000001, -0.306, 192.0, 0.0, 0.0, 0.0, 0.0, 0.0, 0.0, 0.0, 0.0, 0.0, 1.677704066691905E9, 0.0, 2023-03-01 12:54:26.691
45.0, 18481.718716826286, 20857.93266986998, 0.0, 0.0, 0.0, -187500.02235174447, -187500.02235174447, 0.0, 0.56, -0.8260000000000001, -0.306, 192.0, 0.0, 0.0, 0.0, 0.0, 0.0, 0.0, 0.0, 0.0, 0.0, 1.677704066691959E9, 0.0, 2023-03-01 12:54:26.691
46.0, 18481.070516237083, 20861.240728049368, 0.0, 0.0, 0.0, -187500.02235174447, -187500.02235174447, 0.0, 0.56, -0.8260000000000001, -0.306, 192.0, 0.0, 0.0, 0.0, 0.0, 0.0, 0.0, 0.0, 0.0, 0.0, 1.677704066699047E9, 0.0, 2023-03-01 12:54:26.699
47.0, 18482.70219358232, 20866.292222296266, 0.0, 0.0, 0.0, -187500.02235174447, -187500.02235174447, 0.0, 0.56, -0.8260000000000001, -0.306, 192.0, 0.0, 0.0, 0.0, 0.0, 0.0, 0.0, 0.0, 0.0, 0.0, 1.677704066707099E9, 0.0, 2023-03-01 12:54:26.707
48.0, 18487.55252212912, 20866.627498463095, 0.0, 0.0, 0.0, -187500.02235174447, -187500.02235174447, 0.0, 0.554, -0.8200000000000001, -0.306, 192.0, 17.0, 80.0, 230.0, 96.0, 246.0, 112.0, 0.0, 0.0, 0.0, 1.67770406670711E9, 0.0, 2023-03-01 12:54:26.707
49.0, 18486.725507584277, 20867.119236841114, 0.0, 0.0, 0.0, -187500.02235174447, -187500.02235174447, 0.0, 0.554, -0.8200000000000001, -0.306, 192.0, 0.0, 0.0, 0.0, 0.0, 0.0, 0.0, 0.0, 0.0, 0.0, 1.677704066713641E9, 0.0, 2023-03-01 12:54:26.713
50.0, 18489.765344830197, 20869.46617000892, 0.0, 0.0, 0.0, -187500.02235174447, -187500.02235174447, 0.0, 0.554, -0.8200000000000001, -0.306, 192.0, 0.0, 0.0, 0.0, 0.0, 0.0, 0.0, 0.0, 0.0, 0.0, 1.677704066713649E9, 0.0, 2023-03-01 12:54:26.713
51.0, 18490.86058030851, 20872.282489810288, 0.0, 0.0, 0.0, -187500.02235174447, -187500.02235174447, 0.0, 0.554, -0.8200000000000001, -0.306, 192.0, 0.0, 0.0, 0.0, 0.0, 0.0, 0.0, 0.0, 0.0, 0.0, 1.67770406672175E9, 0.0, 2023-03-01 12:54:26.721
52.0, 18490.07826925257, 20862.961812372425, 0.0, 0.0, 0.0, -187500.02235174447, -187500.02235174447, 0.0, 0.554, -0.8200000000000001, -0.306, 192.0, 0.0, 0.0, 0.0, 0.0, 0.0, 0.0, 0.0, 0.0, 0.0, 1.677704066721774E9, 0.0, 2023-03-01 12:54:26.721
53.0, 18496.157943744416, 20869.354411286644, 0.0, 0.0, 0.0, -187500.02235174447, -187500.02235174447, 0.0, 0.554, -0.8200000000000001, -0.306, 192.0, 0.0, 0.0, 0.0, 0.0, 0.0, 0.0, 0.0, 0.0, 0.0, 1.677704066729717E9, 0.0, 2023-03-01 12:54:26.729
54.0, 18503.556371159124, 20878.585681746685, 0.0, 0.0, 0.0, -187500.02235174447, -187500.02235174447, 0.0, 0.554, -0.8200000000000001, -0.306, 192.0, 0.0, 0.0, 0.0, 0.0, 0.0, 0.0, 0.0, 0.0, 0.0, 1.677704066729733E9, 0.0, 2023-03-01 12:54:26.729
55.0, 18502.774060103187, 20878.07159162421, 0.0, 0.0, 0.0, -187500.02235174447, -187500.02235174447, 0.0, 0.554, -0.8200000000000001, -0.306, 192.0, 0.0, 0.0, 0.0, 0.0, 0.0, 0.0, 0.0, 0.0, 0.0, 1.677704066736405E9, 0.0, 2023-03-01 12:54:26.736
56.0, 18506.551504916133, 20880.1279521141, 0.0, 0.0, 0.0, -187500.02235174447, -187500.02235174447, 0.0, 0.554, -0.8200000000000001, -0.306, 192.0, 0.0, 0.0, 0.0, 0.0, 0.0, 0.0, 0.0, 0.0, 0.0, 1.677704066736424E9, 0.0, 2023-03-01 12:54:26.736
57.0, 18517.034473065673, 20888.3310423292, 0.0, 0.0, 0.0, -187500.02235174447, -187500.02235174447, 0.0, 0.554, -0.8200000000000001, -0.306, 192.0, 0.0, 0.0, 0.0, 0.0, 0.0, 0.0, 0.0, 0.0, 0.0, 1.677704066744364E9, 0.0, 2023-03-01 12:54:26.744
58.0, 18514.352263731034, 20887.235806850887, 0.0, 0.0, 0.0, -187500.02235174447, -187500.02235174447, 0.0, 0.554, -0.8200000000000001, -0.306, 192.0, 0.0, 0.0, 0.0, 0.0, 0.0, 0.0, 0.0, 0.0, 0.0, 1.677704066744375E9, 0.0, 2023-03-01 12:54:26.744
59.0, 18521.974208590294, 20894.544827287773, 0.0, 0.0, 0.0, -187500.02235174447, -187500.02235174447, 0.0, 0.5760000000000001, -0.812, -0.316, 192.0, 18.0, 0.0, 230.0, 160.0, 246.0, 32.0, 0.0, 0.0, 0.0, 1.67770406675232E9, 0.0, 2023-03-01 12:54:26.752
60.0, 18532.94891511785, 20902.390289591585, 0.0, 0.0, 0.0, -187500.02235174447, -187500.02235174447, 0.0, 0.5760000000000001, -0.812, -0.316, 192.0, 0.0, 0.0, 0.0, 0.0, 0.0, 0.0, 0.0, 0.0, 0.0, 1.677704066752339E9, 0.0, 2023-03-01 12:54:26.752
61.0, 18522.309484757126, 20895.058917410246, 0.0, 0.0, 0.0, -187500.02235174447, -187500.02235174447, 0.0, 0.5760000000000001, -0.812, -0.316, 192.0, 0.0, 0.0, 0.0, 0.0, 0.0, 0.0, 0.0, 0.0, 0.0, 1.677704066759286E9, 0.0, 2023-03-01 12:54:26.759
62.0, 18518.19676377735, 20887.548731273262, 0.0, 0.0, 0.0, -187500.02235174447, -187500.02235174447, 0.0, 0.5760000000000001, -0.812, -0.316, 192.0, 0.0, 0.0, 0.0, 0.0, 0.0, 0.0, 0.0, 0.0, 0.0, 1.677704066759298E9, 0.0, 2023-03-01 12:54:26.759
63.0, 18524.410548735923, 20895.14832438807, 0.0, 0.0, 0.0, -187453.77659246643, -187500.02235174447, 0.0, 0.5760000000000001, -0.812, -0.316, 192.0, 0.0, 0.0, 0.0, 0.0, 0.0, 0.0, 0.0, 0.0, 0.0, 1.677704066765852E9, 0.0, 2023-03-01 12:54:26.765
64.0, 18522.13067080148, 20892.130838886602, 0.0, 0.0, 0.0, -186792.67904671183, -187500.02235174447, 0.0, 0.5760000000000001, -0.812, -0.316, 192.0, 0.0, 0.0, 0.0, 0.0, 0.0, 0.0, 0.0, 0.0, 0.0, 1.677704066773943E9, 0.0, 2023-03-01 12:54:26.773
65.0, 18519.24729576675, 20892.3320045867, 0.0, 0.0, 0.0, -186134.86720739215, -187500.02235174447, 0.0, 0.5760000000000001, -0.812, -0.316, 192.0, 0.0, 0.0, 0.0, 0.0, 0.0, 0.0, 0.0, 0.0, 0.0, 1.677704066773957E9, 0.0, 2023-03-01 12:54:26.773
66.0, 18526.936295859374, 20901.13859190209, 0.0, 0.0, 0.0, -185481.19044079666, -187500.02235174447, 0.0, 0.5760000000000001, -0.812, -0.316, 192.0, 0.0, 0.0, 0.0, 0.0, 0.0, 0.0, 0.0, 0.0, 0.0, 1.677704066781824E9, 0.0, 2023-03-01 12:54:26.781
67.0, 18525.66224642542, 20899.752783745862, 0.0, 0.0, 0.0, -184863.0305961407, -187500.02235174447, 0.0, 0.5760000000000001, -0.812, -0.316, 192.0, 0.0, 0.0, 0.0, 0.0, 0.0, 0.0, 0.0, 0.0, 0.0, 1.677704066781839E9, 0.0, 2023-03-01 12:54:26.781
68.0, 18527.04805458165, 20894.254254609856, 0.0, 0.0, 0.0, -184260.87460051474, -187500.02235174447, 0.0, 0.5760000000000001, -0.812, -0.316, 192.0, 0.0, 0.0, 0.0, 0.0, 0.0, 0.0, 0.0, 0.0, 0.0, 1.677704066789902E9, 0.0, 2023-03-01 12:54:26.789
69.0, 18533.79828140715, 20898.2328651229, 0.0, 0.0, 0.0, -183688.13350059194, -187500.02235174447, 0.0, 0.586, -0.8160000000000001, -0.322, 192.0, 18.0, 80.0, 230.0, 128.0, 245.0, 240.0, 0.0, 0.0, 0.0, 1.677704066789915E9, 0.0, 2023-03-01 12:54:26.789
70.0, 18536.547545975154, 20905.698347770973, 0.0, 0.0, 0.0, -183098.15920569413, -187500.02235174447, 0.0, 0.586, -0.8160000000000001, -0.322, 192.0, 0.0, 0.0, 0.0, 0.0, 0.0, 0.0, 0.0, 0.0, 0.0, 1.677704066796563E9, 0.0, 2023-03-01 12:54:26.796
71.0, 18545.421188523913, 20913.163830419046, 0.0, 0.0, 0.0, -182517.57264346752, -187500.02235174447, 0.0, 0.586, -0.8160000000000001, -0.322, 192.0, 0.0, 0.0, 0.0, 0.0, 0.0, 0.0, 0.0, 0.0, 0.0, 1.677704066796576E9, 0.0, 2023-03-01 12:54:26.796
72.0, 18547.61165948053, 20918.57295257723, 0.0, 0.0, 0.0, -181970.82662234624, -187500.02235174447, 0.0, 0.586, -0.8160000000000001, -0.322, 192.0, 0.0, 0.0, 0.0, 0.0, 0.0, 0.0, 0.0, 0.0, 0.0, 1.677704066804489E9, 0.0, 2023-03-01 12:54:26.804
73.0, 18544.169490834414, 20918.28237989931, 0.0, 0.0, 0.0, -181488.96771537873, -187500.02235174447, 0.0, 0.586, -0.8160000000000001, -0.322, 192.0, 0.0, 0.0, 0.0, 0.0, 0.0, 0.0, 0.0, 0.0, 0.0, 1.677704066804498E9, 0.0, 2023-03-01 12:54:26.804
74.0, 18541.219060566316, 20923.065653212747, 0.0, 0.0, 0.0, -181020.34104112876, -187500.02235174447, 0.0, 0.586, -0.8160000000000001, -0.322, 192.0, 0.0, 0.0, 0.0, 0.0, 0.0, 0.0, 0.0, 0.0, 0.0, 1.677704066812601E9, 0.0, 2023-03-01 12:54:26.812
75.0, 18542.80603442264, 20922.216286923445, 0.0, 0.0, 0.0, -180553.90483783543, -187500.02235174447, 0.0, 0.586, -0.8160000000000001, -0.322, 192.0, 0.0, 0.0, 0.0, 0.0, 0.0, 0.0, 0.0, 0.0, 0.0, 1.677704066812619E9, 0.0, 2023-03-01 12:54:26.812
76.0, 18542.29194430017, 20920.04816771128, 0.0, 0.0, 0.0, -180146.87957130428, -187500.02235174447, 0.0, 0.586, -0.8160000000000001, -0.322, 192.0, 0.0, 0.0, 0.0, 0.0, 0.0, 0.0, 0.0, 0.0, 0.0, 1.677704066819332E9, 0.0, 2023-03-01 12:54:26.819
77.0, 18547.00816238024, 20927.401891637077, 0.0, 0.0, 0.0, -179773.65014238955, -187500.02235174447, 0.0, 0.586, -0.8160000000000001, -0.322, 192.0, 0.0, 0.0, 0.0, 0.0, 0.0, 0.0, 0.0, 0.0, 0.0, 1.677704066819385E9, 0.0, 2023-03-01 12:54:26.819
78.0, 18543.834214667586, 20921.99276947889, 0.0, 0.0, 0.0, -179452.70144375582, -187500.02235174447, 0.0, 0.586, -0.8160000000000001, -0.322, 192.0, 0.0, 0.0, 0.0, 0.0, 0.0, 0.0, 0.0, 0.0, 0.0, 1.677704066826235E9, 0.0, 2023-03-01 12:54:26.826
79.0, 18540.324990788104, 20914.594342064185, 0.0, 0.0, 0.0, -179201.95957445618, -187500.02235174447, 0.0, 0.578, -0.8280000000000001, -0.32, 192.0, 18.0, 16.0, 230.0, 32.0, 246.0, 0.0, 0.0, 0.0, 0.0, 1.677704066834063E9, 0.0, 2023-03-01 12:54:26.834
80.0, 18534.312371529624, 20913.1861821635, 0.0, 0.0, 0.0, -178941.60645504075, -187500.02235174447, 0.0, 0.578, -0.8280000000000001, -0.32, 192.0, 0.0, 0.0, 0.0, 0.0, 0.0, 0.0, 0.0, 0.0, 0.0, 1.677704066834078E9, 0.0, 2023-03-01 12:54:26.834
81.0, 18542.582516978087, 20924.540868346798, 0.0, 0.0, 0.0, -178679.6216582801, -187500.02235174447, 0.0, 0.578, -0.8280000000000001, -0.32, 192.0, 0.0, 0.0, 0.0, 0.0, 0.0, 0.0, 0.0, 0.0, 0.0, 1.67770406684277E9, 0.0, 2023-03-01 12:54:26.842
82.0, 18541.86726115552, 20926.843098025693, 0.0, 0.0, 0.0, -178402.88471017894, -187500.02235174447, 0.0, 0.578, -0.8280000000000001, -0.32, 192.0, 0.0, 0.0, 0.0, 0.0, 0.0, 0.0, 0.0, 0.0, 0.0, 1.677704066842781E9, 0.0, 2023-03-01 12:54:26.842
83.0, 18537.553374475643, 20921.925714245524, 0.0, 0.0, 0.0, -178280.10657788595, -187500.02235174447, 0.0, 0.578, -0.8280000000000001, -0.32, 192.0, 0.0, 0.0, 0.0, 0.0, 0.0, 0.0, 0.0, 0.0, 0.0, 1.677704066848971E9, 0.0, 2023-03-01 12:54:26.848
84.0, 18532.591287206567, 20908.112336172144, 0.0, 0.0, 0.0, -178217.09701026644, -187500.02235174447, 0.0, 0.578, -0.8280000000000001, -0.32, 192.0, 0.0, 0.0, 0.0, 0.0, 0.0, 0.0, 0.0, 0.0, 0.0, 1.677704066848979E9, 0.0, 2023-03-01 12:54:26.848
85.0, 18531.898383128453, 20906.324196615722, 0.0, 0.0, 0.0, -178220.02508879008, -187500.02235174447, 0.0, 0.578, -0.8280000000000001, -0.32, 192.0, 0.0, 0.0, 0.0, 0.0, 0.0, 0.0, 0.0, 0.0, 0.0, 1.677704066856907E9, 0.0, 2023-03-01 12:54:26.856
86.0, 18541.263764055224, 20919.511725844353, 0.0, 0.0, 0.0, -178312.22603466822, -187500.02235174447, 0.0, 0.578, -0.8280000000000001, -0.32, 192.0, 0.0, 0.0, 0.0, 0.0, 0.0, 0.0, 0.0, 0.0, 0.0, 1.677704066856926E9, 0.0, 2023-03-01 12:54:26.856
87.0, 18551.254993826748, 20932.676903328527, 0.0, 0.0, 0.0, -178424.11886741148, -187500.02235174447, 0.0, 0.578, -0.8280000000000001, -0.32, 192.0, 0.0, 0.0, 0.0, 0.0, 0.0, 0.0, 0.0, 0.0, 0.0, 1.677704066864779E9, 0.0, 2023-03-01 12:54:26.864
88.0, 18550.316220559624, 20913.946141474982, 0.0, 0.0, 0.0, -178551.65792127347, -187500.02235174447, 0.0, 0.578, -0.8280000000000001, -0.32, 192.0, 0.0, 0.0, 0.0, 0.0, 0.0, 0.0, 0.0, 0.0, 0.0, 1.677704066864795E9, 0.0, 2023-03-01 12:54:26.864
89.0, 18523.76234814672, 20884.978280660904, 0.0, 0.0, 0.0, -178750.02965331433, -187500.02235174447, 0.0, 0.558, -0.84, -0.308, 192.0, 17.0, 112.0, 229.0, 192.0, 246.0, 96.0, 0.0, 0.0, 0.0, 1.677704066871967E9, 0.0, 2023-03-01 12:54:26.871
90.0, 18516.788603876663, 20888.241635351376, 0.0, 0.0, 0.0, -178975.78227231294, -187500.02235174447, 0.0, 0.558, -0.84, -0.308, 192.0, 0.0, 0.0, 0.0, 0.0, 0.0, 0.0, 0.0, 0.0, 0.0, 1.677704066871983E9, 0.0, 2023-03-01 12:54:26.871
91.0, 18525.3716737475, 20897.718775000427, 0.0, 0.0, 0.0, -179265.37147347588, -187500.02235174447, 0.0, 0.558, -0.84, -0.308, 192.0, 0.0, 0.0, 0.0, 0.0, 0.0, 0.0, 0.0, 0.0, 0.0, 1.677704066879593E9, 0.0, 2023-03-01 12:54:26.879
92.0, 18532.345418017558, 20900.311577357243, 0.0, 0.0, 0.0, -179639.4502686799, -187500.02235174447, 0.0, 0.558, -0.84, -0.308, 192.0, 0.0, 0.0, 0.0, 0.0, 0.0, 0.0, 0.0, 0.0, 0.0, 1.677704066879605E9, 0.0, 2023-03-01 12:54:26.879
93.0, 18535.832290152586, 20901.496219813376, 0.0, 0.0, 0.0, -180053.15870680317, -187500.02235174447, 0.0, 0.558, -0.84, -0.308, 192.0, 0.0, 0.0, 0.0, 0.0, 0.0, 0.0, 0.0, 0.0, 0.0, 1.677704066886428E9, 0.0, 2023-03-01 12:54:26.886
94.0, 18528.679731926888, 20895.79652497727, 0.0, 0.0, 0.0, -180506.83206401256, -187500.02235174447, 0.0, 0.558, -0.84, -0.308, 192.0, 0.0, 0.0, 0.0, 0.0, 0.0, 0.0, 0.0, 0.0, 0.0, 1.677704066894455E9, 0.0, 2023-03-01 12:54:26.894
95.0, 18523.650589424444, 20891.929673186503, 0.0, 0.0, 0.0, -180995.19532861654, -187500.02235174447, 0.0, 0.558, -0.84, -0.308, 192.0, 0.0, 0.0, 0.0, 0.0, 0.0, 0.0, 0.0, 0.0, 0.0, 1.677704066894465E9, 0.0, 2023-03-01 12:54:26.894
96.0, 18530.13259531648, 20895.438897065986, 0.0, 0.0, 0.0, -181499.67420097283, -187500.02235174447, 0.0, 0.558, -0.84, -0.308, 192.0, 0.0, 0.0, 0.0, 0.0, 0.0, 0.0, 0.0, 0.0, 0.0, 1.677704066901622E9, 0.0, 2023-03-01 12:54:26.901
97.0, 18532.99361860676, 20897.204684877957, 0.0, 0.0, 0.0, -181966.78095659983, -187500.02235174447, 0.0, 0.558, -0.84, -0.308, 192.0, 0.0, 0.0, 0.0, 0.0, 0.0, 0.0, 0.0, 0.0, 0.0, 1.677704066901639E9, 0.0, 2023-03-01 12:54:26.901
98.0, 18532.18895580637, 20901.987958191392, 0.0, 0.0, 0.0, -182458.7652038056, -187500.02235174447, 0.0, 0.558, -0.84, -0.308, 192.0, 0.0, 0.0, 0.0, 0.0, 0.0, 0.0, 0.0, 0.0, 0.0, 1.677704066909062E9, 0.0, 2023-03-01 12:54:26.909
99.0, 18535.966400619316, 20904.357243103655, 0.0, 0.0, 0.0, -183008.72987612843, -187500.02235174447, 0.0, 0.554, -0.8280000000000001, -0.306, 192.0, 17.0, 80.0, 230.0, 32.0, 246.0, 112.0, 0.0, 0.0, 0.0, 1.677704066909077E9, 0.0, 2023-03-01 12:54:26.909
100.0, 18547.18697633588, 20907.777060005315, 0.0, 0.0, 0.0, -183567.92581891132, -187500.02235174447, 0.0, 0.554, -0.8280000000000001, -0.306, 192.0, 0.0, 0.0, 0.0, 0.0, 0.0, 0.0, 0.0, 0.0, 0.0, 1.677704066917162E9, 0.0, 2023-03-01 12:54:26.917
101.0, 18551.94789790486, 20915.801336264773, 0.0, 0.0, 0.0, -184151.14988698362, -187500.02235174447, 0.0, 0.554, -0.8280000000000001, -0.306, 192.0, 0.0, 0.0, 0.0, 0.0, 0.0, 0.0, 0.0, 0.0, 0.0, 1.67770406691718E9, 0.0, 2023-03-01 12:54:26.917
102.0, 18545.53294724619, 20907.866466983138, 0.0, 0.0, 0.0, -184738.71019348028, -187500.02235174447, 0.0, 0.554, -0.8280000000000001, -0.306, 192.0, 0.0, 0.0, 0.0, 0.0, 0.0, 0.0, 0.0, 0.0, 0.0, 1.677704066924285E9, 0.0, 2023-03-01 12:54:26.924
103.0, 18541.599040222056, 20904.51370531484, 0.0, 0.0, 0.0, -185341.53674143992, -187500.02235174447, 0.0, 0.554, -0.8280000000000001, -0.306, 192.0, 0.0, 0.0, 0.0, 0.0, 0.0, 0.0, 0.0, 0.0, 0.0, 1.677704066924297E9, 0.0, 2023-03-01 12:54:26.924
104.0, 18542.135482088983, 20906.48065882691, 0.0, 0.0, 0.0, -185932.40510611597, -187500.02235174447, 0.0, 0.554, -0.8280000000000001, -0.306, 192.0, 0.0, 0.0, 0.0, 0.0, 0.0, 0.0, 0.0, 0.0, 0.0, 1.67770406693175E9, 0.0, 2023-03-01 12:54:26.931
105.0, 18542.269592555713, 20912.269760640833, 0.0, 0.0, 0.0, -186557.538695042, -187500.02235174447, 0.0, 0.554, -0.8280000000000001, -0.306, 192.0, 0.0, 0.0, 0.0, 0.0, 0.0, 0.0, 0.0, 0.0, 0.0, 1.67770406693176E9, 0.0, 2023-03-01 12:54:26.931
106.0, 18541.688447199875, 20916.315426387242, 0.0, 0.0, 0.0, -187195.12220562962, -187500.02235174447, 0.0, 0.554, -0.8280000000000001, -0.306, 192.0, 0.0, 0.0, 0.0, 0.0, 0.0, 0.0, 0.0, 0.0, 0.0, 1.677704066939688E9, 0.0, 2023-03-01 12:54:26.939
107.0, 18553.356057805548, 20921.925714245524, 0.0, 0.0, 0.0, -187500.02235174447, -187500.02235174447, 0.0, 0.554, -0.8280000000000001, -0.306, 192.0, 0.0, 0.0, 0.0, 0.0, 0.0, 0.0, 0.0, 0.0, 0.0, 1.677704066939699E9, 0.0, 2023-03-01 12:54:26.939
108.0, 18556.395895051468, 20919.511725844353, 0.0, 0.0, 0.0, -187500.02235174447, -187500.02235174447, 0.0, 0.554, -0.8280000000000001, -0.306, 192.0, 0.0, 0.0, 0.0, 0.0, 0.0, 0.0, 0.0, 0.0, 0.0, 1.677704066946733E9, 0.0, 2023-03-01 12:54:26.946
109.0, 18555.032438639693, 20926.37371139213, 0.0, 0.0, 0.0, -187500.02235174447, -187500.02235174447, 0.0, 0.552, -0.8260000000000001, -0.308, 192.0, 17.0, 64.0, 230.0, 48.0, 246.0, 96.0, 0.0, 0.0, 0.0, 1.677704066954035E9, 0.0, 2023-03-01 12:54:26.954
110.0, 18552.752560705252, 20920.651664811572, 0.0, 0.0, 0.0, -187500.02235174447, -187500.02235174447, 0.0, 0.552, -0.8260000000000001, -0.308, 192.0, 0.0, 0.0, 0.0, 0.0, 0.0, 0.0, 0.0, 0.0, 0.0, 1.677704066954075E9, 0.0, 2023-03-01 12:54:26.954
111.0, 18553.981906650293, 20915.354301375664, 0.0, 0.0, 0.0, -187500.02235174447, -187500.02235174447, 0.0, 0.552, -0.8260000000000001, -0.308, 192.0, 0.0, 0.0, 0.0, 0.0, 0.0, 0.0, 0.0, 0.0, 0.0, 1.677704066961441E9, 0.0, 2023-03-01 12:54:26.961
112.0, 18556.731171218296, 20921.81395552325, 0.0, 0.0, 0.0, -187500.02235174447, -187500.02235174447, 0.0, 0.552, -0.8260000000000001, -0.308, 192.0, 0.0, 0.0, 0.0, 0.0, 0.0, 0.0, 0.0, 0.0, 0.0, 1.677704066961455E9, 0.0, 2023-03-01 12:54:26.961
113.0, 18557.513482274233, 20924.205592179966, 0.0, 0.0, 0.0, -187500.02235174447, -187500.02235174447, 0.0, 0.552, -0.8260000000000001, -0.308, 192.0, 0.0, 0.0, 0.0, 0.0, 0.0, 0.0, 0.0, 0.0, 0.0, 1.677704066969299E9, 0.0, 2023-03-01 12:54:26.969
114.0, 18558.273441585712, 20915.935446731502, 0.0, 0.0, 0.0, -187500.02235174447, -187500.02235174447, 0.0, 0.552, -0.8260000000000001, -0.308, 192.0, 0.0, 0.0, 0.0, 0.0, 0.0, 0.0, 0.0, 0.0, 0.0, 1.67770406696931E9, 0.0, 2023-03-01 12:54:26.969
115.0, 18563.77197072172, 20934.4426911405, 0.0, 0.0, 0.0, -187500.02235174447, -187500.02235174447, 0.0, 0.552, -0.8260000000000001, -0.308, 192.0, 0.0, 0.0, 0.0, 0.0, 0.0, 0.0, 0.0, 0.0, 0.0, 1.677704066977416E9, 0.0, 2023-03-01 12:54:26.977
116.0, 18572.310337103645, 20941.57289762174, 0.0, 0.0, 0.0, -187500.02235174447, -187500.02235174447, 0.0, 0.552, -0.8260000000000001, -0.308, 192.0, 0.0, 0.0, 0.0, 0.0, 0.0, 0.0, 0.0, 0.0, 0.0, 1.677704066977425E9, 0.0, 2023-03-01 12:54:26.977
117.0, 18559.413380552935, 20923.37857763512, 0.0, 0.0, 0.0, -187500.02235174447, -187500.02235174447, 0.0, 0.552, -0.8260000000000001, -0.308, 192.0, 0.0, 0.0, 0.0, 0.0, 0.0, 0.0, 0.0, 0.0, 0.0, 1.677704066983917E9, 0.0, 2023-03-01 12:54:26.983
118.0, 18567.236491112293, 20932.073406228235, 0.0, 0.0, 0.0, -187500.02235174447, -187500.02235174447, 0.0, 0.552, -0.8260000000000001, -0.308, 192.0, 0.0, 0.0, 0.0, 0.0, 0.0, 0.0, 0.0, 0.0, 0.0, 1.677704066983926E9, 0.0, 2023-03-01 12:54:26.983
119.0, 18568.62229926852, 20929.011217237858, 0.0, 0.0, 0.0, -187500.02235174447, -187500.02235174447, 0.0, 0.562, -0.812, -0.31, 192.0, 17.0, 144.0, 230.0, 160.0, 246.0, 80.0, 0.0, 0.0, 0.0, 1.677704066992435E9, 0.0, 2023-03-01 12:54:26.992
120.0, 18560.28509858669, 20922.372749134633, 0.0, 0.0, 0.0, -187500.02235174447, -187500.02235174447, 0.0, 0.562, -0.812, -0.31, 192.0, 0.0, 0.0, 0.0, 0.0, 0.0, 0.0, 0.0, 0.0, 0.0, 1.677704066992457E9, 0.0, 2023-03-01 12:54:26.992
121.0, 18558.407552052446, 20921.05399621177, 0.0, 0.0, 0.0, -187500.02235174447, -187500.02235174447, 0.0, 0.562, -0.812, -0.31, 192.0, 0.0, 0.0, 0.0, 0.0, 0.0, 0.0, 0.0, 0.0, 0.0, 1.677704067000085E9, 0.0, 2023-03-01 12:54:27.000
122.0, 18562.34145907658, 20928.340664904197, 0.0, 0.0, 0.0, -187500.02235174447, -187500.02235174447, 0.0, 0.562, -0.812, -0.31, 192.0, 0.0, 0.0, 0.0, 0.0, 0.0, 0.0, 0.0, 0.0, 0.0, 1.677704067000102E9, 0.0, 2023-03-01 12:54:27.000
123.0, 18563.19082536588, 20932.76631030635, 0.0, 0.0, 0.0, -187500.02235174447, -187500.02235174447, 0.0, 0.562, -0.812, -0.31, 192.0, 0.0, 0.0, 0.0, 0.0, 0.0, 0.0, 0.0, 0.0, 0.0, 1.677704067007178E9, 0.0, 2023-03-01 12:54:27.007
124.0, 18562.162645120938, 20929.1900311935, 0.0, 0.0, 0.0, -187500.02235174447, -187500.02235174447, 0.0, 0.562, -0.812, -0.31, 192.0, 0.0, 0.0, 0.0, 0.0, 0.0, 0.0, 0.0, 0.0, 0.0, 1.677704067007199E9, 0.0, 2023-03-01 12:54:27.007
125.0, 18558.09462763007, 20918.684711299506, 0.0, 0.0, 0.0, -187500.02235174447, -187500.02235174447, 0.0, 0.562, -0.812, -0.31, 192.0, 0.0, 0.0, 0.0, 0.0, 0.0, 0.0, 0.0, 0.0, 0.0, 1.677704067013701E9, 0.0, 2023-03-01 12:54:27.013
126.0, 18550.182110092894, 20910.52632457332, 0.0, 0.0, 0.0, -187500.02235174447, -187500.02235174447, 0.0, 0.562, -0.812, -0.31, 192.0, 0.0, 0.0, 0.0, 0.0, 0.0, 0.0, 0.0, 0.0, 0.0, 1.677704067021615E9, 0.0, 2023-03-01 12:54:27.021
127.0, 18550.986772893284, 20916.3377781317, 0.0, 0.0, 0.0, -187500.02235174447, -187500.02235174447, 0.0, 0.562, -0.812, -0.31, 192.0, 0.0, 0.0, 0.0, 0.0, 0.0, 0.0, 0.0, 0.0, 0.0, 1.677704067021627E9, 0.0, 2023-03-01 12:54:27.021
128.0, 18541.48728149978, 20899.79748723477, 0.0, 0.0, 0.0, -187500.02235174447, -187500.02235174447, 0.0, 0.562, -0.812, -0.31, 192.0, 0.0, 0.0, 0.0, 0.0, 0.0, 0.0, 0.0, 0.0, 0.0, 1.67770406702964E9, 0.0, 2023-03-01 12:54:27.029
129.0, 18542.71662744482, 20897.249388366865, 0.0, 0.0, 0.0, -187500.02235174447, -187500.02235174447, 0.0, 0.5640000000000001, -0.806, -0.328, 192.0, 17.0, 160.0, 230.0, 208.0, 245.0, 192.0, 0.0, 0.0, 0.0, 1.677704067029653E9, 0.0, 2023-03-01 12:54:27.029
130.0, 18567.169435878925, 20925.27847591382, 0.0, 0.0, 0.0, -187500.02235174447, -187500.02235174447, 0.0, 0.5640000000000001, -0.806, -0.328, 192.0, 0.0, 0.0, 0.0, 0.0, 0.0, 0.0, 0.0, 0.0, 0.0, 1.677704067036674E9, 0.0, 2023-03-01 12:54:27.036
131.0, 18587.643633799988, 20939.851813298683, 0.0, 0.0, 0.0, -187500.02235174447, -187500.02235174447, 0.0, 0.5640000000000001, -0.806, -0.328, 192.0, 0.0, 0.0, 0.0, 0.0, 0.0, 0.0, 0.0, 0.0, 0.0, 1.677704067036698E9, 0.0, 2023-03-01 12:54:27.036
132.0, 18564.375467822014, 20911.688615284995, 0.0, 0.0, 0.0, -187500.02235174447, -187500.02235174447, 0.0, 0.5640000000000001, -0.806, -0.328, 192.0, 0.0, 0.0, 0.0, 0.0, 0.0, 0.0, 0.0, 0.0, 0.0, 1.677704067044273E9, 0.0, 2023-03-01 12:54:27.044
133.0, 18531.853679639542, 20886.94523417297, 0.0, 0.0, 0.0, -187500.02235174447, -187500.02235174447, 0.0, 0.5640000000000001, -0.806, -0.328, 192.0, 0.0, 0.0, 0.0, 0.0, 0.0, 0.0, 0.0, 0.0, 0.0, 1.677704067044288E9, 0.0, 2023-03-01 12:54:27.044
134.0, 18533.597115707056, 20884.41948704952, 0.0, 0.0, 0.0, -187500.02235174447, -187500.02235174447, 0.0, 0.5640000000000001, -0.806, -0.328, 192.0, 0.0, 0.0, 0.0, 0.0, 0.0, 0.0, 0.0, 0.0, 0.0, 1.677704067052298E9, 0.0, 2023-03-01 12:54:27.052
135.0, 18550.986772893284, 20898.90341745656, 0.0, 0.0, 0.0, -187500.02235174447, -187500.02235174447, 0.0, 0.5640000000000001, -0.806, -0.328, 192.0, 0.0, 0.0, 0.0, 0.0, 0.0, 0.0, 0.0, 0.0, 0.0, 1.677704067052313E9, 0.0, 2023-03-01 12:54:27.052
136.0, 18561.089761387084, 20898.948120945468, 0.0, 0.0, 0.0, -187500.02235174447, -187500.02235174447, 0.0, 0.5640000000000001, -0.806, -0.328, 192.0, 0.0, 0.0, 0.0, 0.0, 0.0, 0.0, 0.0, 0.0, 0.0, 1.677704067060382E9, 0.0, 2023-03-01 12:54:27.060
137.0, 18545.421188523913, 20886.766420217326, 0.0, 0.0, 0.0, -187500.02235174447, -187500.02235174447, 0.0, 0.5640000000000001, -0.806, -0.328, 192.0, 0.0, 0.0, 0.0, 0.0, 0.0, 0.0, 0.0, 0.0, 0.0, 1.677704067060395E9, 0.0, 2023-03-01 12:54:27.060
138.0, 18546.225851324303, 20891.482638297395, 0.0, 0.0, 0.0, -187500.02235174447, -187500.02235174447, 0.0, 0.5640000000000001, -0.806, -0.328, 192.0, 0.0, 0.0, 0.0, 0.0, 0.0, 0.0, 0.0, 0.0, 0.0, 1.677704067066894E9, 0.0, 2023-03-01 12:54:27.066
139.0, 18540.63791521048, 20878.406867791044, 0.0, 0.0, 0.0, -187500.02235174447, -187500.02235174447, 0.0, 0.5640000000000001, -0.806, -0.328, 192.0, 0.0, 0.0, 0.0, 0.0, 0.0, 0.0, 0.0, 0.0, 0.0, 1.677704067066904E9, 0.0, 2023-03-01 12:54:27.066
140.0, 18541.688447199875, 20878.831550935694, 0.0, 0.0, 0.0, -187500.02235174447, -187500.02235174447, 0.0, 0.59, -0.8, -0.328, 192.0, 18.0, 112.0, 231.0, 0.0, 245.0, 192.0, 0.0, 0.0, 0.0, 1.677704067074001E9, 0.0, 2023-03-01 12:54:27.074
141.0, 18541.19670882186, 20883.41365854903, 0.0, 0.0, 0.0, -187500.02235174447, -187500.02235174447, 0.0, 0.59, -0.8, -0.328, 192.0, 0.0, 0.0, 0.0, 0.0, 0.0, 0.0, 0.0, 0.0, 0.0, 1.677704067081922E9, 0.0, 2023-03-01 12:54:27.081
142.0, 18563.503749788255, 20899.641025023586, 0.0, 0.0, 0.0, -187500.02235174447, -187500.02235174447, 0.0, 0.59, -0.8, -0.328, 192.0, 0.0, 0.0, 0.0, 0.0, 0.0, 0.0, 0.0, 0.0, 0.0, 1.677704067081979E9, 0.0, 2023-03-01 12:54:27.081
143.0, 18566.52123528972, 20901.183295391, 0.0, 0.0, 0.0, -187500.02235174447, -187500.02235174447, 0.0, 0.59, -0.8, -0.328, 192.0, 0.0, 0.0, 0.0, 0.0, 0.0, 0.0, 0.0, 0.0, 0.0, 1.677704067089846E9, 0.0, 2023-03-01 12:54:27.089
144.0, 18566.185959122893, 20904.826629737214, 0.0, 0.0, 0.0, -187500.02235174447, -187500.02235174447, 0.0, 0.59, -0.8, -0.328, 192.0, 0.0, 0.0, 0.0, 0.0, 0.0, 0.0, 0.0, 0.0, 0.0, 1.677704067089862E9, 0.0, 2023-03-01 12:54:27.089
145.0, 18558.92164217492, 20900.08805991269, 0.0, 0.0, 0.0, -187500.02235174447, -187500.02235174447, 0.0, 0.59, -0.8, -0.328, 192.0, 0.0, 0.0, 0.0, 0.0, 0.0, 0.0, 0.0, 0.0, 0.0, 1.677704067096423E9, 0.0, 2023-03-01 12:54:27.096
146.0, 18562.408514309947, 20893.65075750956, 0.0, 0.0, 0.0, -187500.02235174447, -187500.02235174447, 0.0, 0.59, -0.8, -0.328, 192.0, 0.0, 0.0, 0.0, 0.0, 0.0, 0.0, 0.0, 0.0, 0.0, 1.677704067096438E9, 0.0, 2023-03-01 12:54:27.096
147.0, 18573.24911037077, 20904.446650081474, 0.0, 0.0, 0.0, -187500.02235174447, -187500.02235174447, 0.0, 0.59, -0.8, -0.328, 192.0, 0.0, 0.0, 0.0, 0.0, 0.0, 0.0, 0.0, 0.0, 0.0, 1.677704067104465E9, 0.0, 2023-03-01 12:54:27.104
148.0, 18572.846778970576, 20910.012234450845, 0.0, 0.0, 0.0, -187500.02235174447, -187500.02235174447, 0.0, 0.59, -0.8, -0.328, 192.0, 0.0, 0.0, 0.0, 0.0, 0.0, 0.0, 0.0, 0.0, 0.0, 1.677704067104477E9, 0.0, 2023-03-01 12:54:27.104
149.0, 18565.202482366858, 20897.405850578052, 0.0, 0.0, 0.0, -187500.02235174447, -187500.02235174447, 0.0, 0.59, -0.8, -0.328, 192.0, 0.0, 0.0, 0.0, 0.0, 0.0, 0.0, 0.0, 0.0, 0.0, 1.677704067112497E9, 0.0, 2023-03-01 12:54:27.112
150.0, 18569.941052191385, 20903.820801236725, 0.0, 0.0, 0.0, -187500.02235174447, -187500.02235174447, 0.0, 0.588, -0.802, -0.324, 192.0, 18.0, 96.0, 230.0, 240.0, 245.0, 224.0, 0.0, 0.0, 0.0, 1.677704067112508E9, 0.0, 2023-03-01 12:54:27.112
151.0, 18573.427924326414, 20905.541885559785, 0.0, 0.0, 0.0, -187500.02235174447, -187500.02235174447, 0.0, 0.588, -0.802, -0.324, 192.0, 0.0, 0.0, 0.0, 0.0, 0.0, 0.0, 0.0, 0.0, 0.0, 1.677704067119019E9, 0.0, 2023-03-01 12:54:27.119
152.0, 18574.187883637893, 20904.55840880375, 0.0, 0.0, 0.0, -187500.02235174447, -187500.02235174447, 0.0, 0.588, -0.802, -0.324, 192.0, 0.0, 0.0, 0.0, 0.0, 0.0, 0.0, 0.0, 0.0, 0.0, 1.677704067119028E9, 0.0, 2023-03-01 12:54:27.119
153.0, 18579.753468007264, 20905.631292537608, 0.0, 0.0, 0.0, -187500.02235174447, -187500.02235174447, 0.0, 0.588, -0.802, -0.324, 192.0, 0.0, 0.0, 0.0, 0.0, 0.0, 0.0, 0.0, 0.0, 0.0, 1.677704067127136E9, 0.0, 2023-03-01 12:54:27.127
154.0, 18589.029441956216, 20914.817859508737, 0.0, 0.0, 0.0, -187500.02235174447, -187500.02235174447, 0.0, 0.588, -0.802, -0.324, 192.0, 0.0, 0.0, 0.0, 0.0, 0.0, 0.0, 0.0, 0.0, 0.0, 1.677704067127154E9, 0.0, 2023-03-01 12:54:27.127
155.0, 18586.01195645475, 20914.549638575274, 0.0, 0.0, 0.0, -187500.02235174447, -187500.02235174447, 0.0, 0.588, -0.802, -0.324, 192.0, 0.0, 0.0, 0.0, 0.0, 0.0, 0.0, 0.0, 0.0, 0.0, 1.677704067134181E9, 0.0, 2023-03-01 12:54:27.134
156.0, 18587.174247166426, 20914.48258334191, 0.0, 0.0, 0.0, -187500.02235174447, -187500.02235174447, 0.0, 0.588, -0.802, -0.324, 192.0, 0.0, 0.0, 0.0, 0.0, 0.0, 0.0, 0.0, 0.0, 0.0, 1.67770406714214E9, 0.0, 2023-03-01 12:54:27.142
157.0, 18589.565883823143, 20917.365958376642, 0.0, 0.0, 0.0, -187500.02235174447, -187500.02235174447, 0.0, 0.588, -0.802, -0.324, 192.0, 0.0, 0.0, 0.0, 0.0, 0.0, 0.0, 0.0, 0.0, 0.0, 1.677704067142156E9, 0.0, 2023-03-01 12:54:27.142
158.0, 18587.129543677514, 20920.89753400058, 0.0, 0.0, 0.0, -187500.02235174447, -187500.02235174447, 0.0, 0.588, -0.802, -0.324, 192.0, 0.0, 0.0, 0.0, 0.0, 0.0, 0.0, 0.0, 0.0, 0.0, 1.677704067148726E9, 0.0, 2023-03-01 12:54:27.148
159.0, 18581.653366285966, 20913.387347863598, 0.0, 0.0, 0.0, -187500.02235174447, -187500.02235174447, 0.0, 0.588, -0.802, -0.324, 192.0, 0.0, 0.0, 0.0, 0.0, 0.0, 0.0, 0.0, 0.0, 0.0, 1.677704067148769E9, 0.0, 2023-03-01 12:54:27.148
160.0, 18571.125694647515, 20902.591455291684, 0.0, 0.0, 0.0, -187500.02235174447, -187500.02235174447, 0.0, 0.5720000000000001, -0.8, -0.316, 192.0, 17.0, 224.0, 231.0, 0.0, 246.0, 32.0, 0.0, 0.0, 0.0, 1.677704067156764E9, 0.0, 2023-03-01 12:54:27.156
161.0, 18579.574654051623, 20912.1356501741, 0.0, 0.0, 0.0, -187500.02235174447, -187500.02235174447, 0.0, 0.5720000000000001, -0.8, -0.316, 192.0, 0.0, 0.0, 0.0, 0.0, 0.0, 0.0, 0.0, 0.0, 0.0, 1.677704067156775E9, 0.0, 2023-03-01 12:54:27.156
162.0, 18592.15868617996, 20920.47285085593, 0.0, 0.0, 0.0, -187500.02235174447, -187500.02235174447, 0.0, 0.5720000000000001, -0.8, -0.316, 192.0, 0.0, 0.0, 0.0, 0.0, 0.0, 0.0, 0.0, 0.0, 0.0, 1.677704067164834E9, 0.0, 2023-03-01 12:54:27.164
163.0, 18584.268520387235, 20917.209496165455, 0.0, 0.0, 0.0, -187500.02235174447, -187500.02235174447, 0.0, 0.5720000000000001, -0.8, -0.316, 192.0, 0.0, 0.0, 0.0, 0.0, 0.0, 0.0, 0.0, 0.0, 0.0, 1.677704067164844E9, 0.0, 2023-03-01 12:54:27.164
164.0, 18589.208255911857, 20918.908228744058, 0.0, 0.0, 0.0, -187500.02235174447, -187500.02235174447, 0.0, 0.5720000000000001, -0.8, -0.316, 192.0, 0.0, 0.0, 0.0, 0.0, 0.0, 0.0, 0.0, 0.0, 0.0, 1.677704067171922E9, 0.0, 2023-03-01 12:54:27.171
165.0, 18585.922549476927, 20910.816897251236, 0.0, 0.0, 0.0, -187500.02235174447, -187500.02235174447, 0.0, 0.5720000000000001, -0.8, -0.316, 192.0, 0.0, 0.0, 0.0, 0.0, 0.0, 0.0, 0.0, 0.0, 0.0, 1.677704067171942E9, 0.0, 2023-03-01 12:54:27.171
166.0, 18587.643633799988, 20921.366920634144, 0.0, 0.0, 0.0, -187500.02235174447, -187500.02235174447, 0.0, 0.5720000000000001, -0.8, -0.316, 192.0, 0.0, 0.0, 0.0, 0.0, 0.0, 0.0, 0.0, 0.0, 0.0, 1.677704067179308E9, 0.0, 2023-03-01 12:54:27.179
167.0, 18589.09649718958, 20923.490336357398, 0.0, 0.0, 0.0, -187500.02235174447, -187500.02235174447, 0.0, 0.5720000000000001, -0.8, -0.316, 192.0, 0.0, 0.0, 0.0, 0.0, 0.0, 0.0, 0.0, 0.0, 0.0, 1.677704067179322E9, 0.0, 2023-03-01 12:54:27.179
168.0, 18576.44540982788, 20908.067632683236, 0.0, 0.0, 0.0, -187500.02235174447, -187500.02235174447, 0.0, 0.5720000000000001, -0.8, -0.316, 192.0, 0.0, 0.0, 0.0, 0.0, 0.0, 0.0, 0.0, 0.0, 0.0, 1.677704067187429E9, 0.0, 2023-03-01 12:54:27.187
169.0, 18573.53968304869, 20904.781926248306, 0.0, 0.0, 0.0, -187500.02235174447, -187500.02235174447, 0.0, 0.5720000000000001, -0.8, -0.316, 192.0, 0.0, 0.0, 0.0, 0.0, 0.0, 0.0, 0.0, 0.0, 0.0, 1.677704067187447E9, 0.0, 2023-03-01 12:54:27.187
170.0, 18581.25103488577, 20915.175487420023, 0.0, 0.0, 0.0, -187500.02235174447, -187500.02235174447, 0.0, 0.5720000000000001, -0.806, -0.308, 192.0, 17.0, 224.0, 230.0, 208.0, 246.0, 96.0, 0.0, 0.0, 0.0, 1.677704067194389E9, 0.0, 2023-03-01 12:54:27.194
171.0, 18580.28990987419, 20915.89074324259, 0.0, 0.0, 0.0, -187500.02235174447, -187500.02235174447, 0.0, 0.5720000000000001, -0.806, -0.308, 192.0, 0.0, 0.0, 0.0, 0.0, 0.0, 0.0, 0.0, 0.0, 0.0, 1.677704067201576E9, 0.0, 2023-03-01 12:54:27.201
172.0, 18578.412363339947, 20917.835345010204, 0.0, 0.0, 0.0, -187500.02235174447, -187500.02235174447, 0.0, 0.5720000000000001, -0.806, -0.308, 192.0, 0.0, 0.0, 0.0, 0.0, 0.0, 0.0, 0.0, 0.0, 0.0, 1.677704067201587E9, 0.0, 2023-03-01 12:54:27.201
173.0, 18581.34044186359, 20915.399004864576, 0.0, 0.0, 0.0, -187500.02235174447, -187500.02235174447, 0.0, 0.5720000000000001, -0.806, -0.308, 192.0, 0.0, 0.0, 0.0, 0.0, 0.0, 0.0, 0.0, 0.0, 0.0, 1.677704067209041E9, 0.0, 2023-03-01 12:54:27.209
174.0, 18571.25980511425, 20904.37959484811, 0.0, 0.0, 0.0, -187500.02235174447, -187500.02235174447, 0.0, 0.5720000000000001, -0.806, -0.308, 192.0, 0.0, 0.0, 0.0, 0.0, 0.0, 0.0, 0.0, 0.0, 0.0, 1.67770406720905E9, 0.0, 2023-03-01 12:54:27.209
175.0, 18578.837046484598, 20910.101641428668, 0.0, 0.0, 0.0, -187500.02235174447, -187500.02235174447, 0.0, 0.5720000000000001, -0.806, -0.308, 192.0, 0.0, 0.0, 0.0, 0.0, 0.0, 0.0, 0.0, 0.0, 0.0, 1.677704067217092E9, 0.0, 2023-03-01 12:54:27.217
176.0, 18577.29477611718, 20907.978225705414, 0.0, 0.0, 0.0, -187500.02235174447, -187500.02235174447, 0.0, 0.5720000000000001, -0.806, -0.308, 192.0, 0.0, 0.0, 0.0, 0.0, 0.0, 0.0, 0.0, 0.0, 0.0, 1.677704067217115E9, 0.0, 2023-03-01 12:54:27.217
177.0, 18580.7369447633, 20916.181315920512, 0.0, 0.0, 0.0, -187500.02235174447, -187500.02235174447, 0.0, 0.5720000000000001, -0.806, -0.308, 192.0, 0.0, 0.0, 0.0, 0.0, 0.0, 0.0, 0.0, 0.0, 0.0, 1.677704067225103E9, 0.0, 2023-03-01 12:54:27.225
178.0, 18583.262691886746, 20916.69540604298, 0.0, 0.0, 0.0, -187500.02235174447, -187500.02235174447, 0.0, 0.5720000000000001, -0.806, -0.308, 192.0, 0.0, 0.0, 0.0, 0.0, 0.0, 0.0, 0.0, 0.0, 0.0, 1.677704067225123E9, 0.0, 2023-03-01 12:54:27.225
179.0, 18584.290872131693, 20920.696368300483, 0.0, 0.0, 0.0, -187500.02235174447, -187500.02235174447, 0.0, 0.5720000000000001, -0.806, -0.308, 192.0, 0.0, 0.0, 0.0, 0.0, 0.0, 0.0, 0.0, 0.0, 0.0, 1.677704067231639E9, 0.0, 2023-03-01 12:54:27.231
180.0, 18582.569787808632, 20918.058862454756, 0.0, 0.0, 0.0, -187500.02235174447, -187500.02235174447, 0.0, 0.5740000000000001, -0.812, -0.31, 192.0, 17.0, 240.0, 230.0, 160.0, 246.0, 80.0, 0.0, 0.0, 0.0, 1.677704067231654E9, 0.0, 2023-03-01 12:54:27.231
181.0, 18590.214084412346, 20924.80908928026, 0.0, 0.0, 0.0, -187500.02235174447, -187500.02235174447, 0.0, 0.5740000000000001, -0.812, -0.31, 192.0, 0.0, 0.0, 0.0, 0.0, 0.0, 0.0, 0.0, 0.0, 0.0, 1.677704067239729E9, 0.0, 2023-03-01 12:54:27.239
182.0, 18590.750526279277, 20933.012179495356, 0.0, 0.0, 0.0, -187500.02235174447, -187500.02235174447, 0.0, 0.5740000000000001, -0.812, -0.31, 192.0, 0.0, 0.0, 0.0, 0.0, 0.0, 0.0, 0.0, 0.0, 0.0, 1.677704067239739E9, 0.0, 2023-03-01 12:54:27.239
183.0, 18594.6397298145, 20935.739092318905, 0.0, 0.0, 0.0, -187500.02235174447, -187500.02235174447, 0.0, 0.5740000000000001, -0.812, -0.31, 192.0, 0.0, 0.0, 0.0, 0.0, 0.0, 0.0, 0.0, 0.0, 0.0, 1.677704067247741E9, 0.0, 2023-03-01 12:54:27.247
184.0, 18595.891427503997, 20934.263877184854, 0.0, 0.0, 0.0, -187500.02235174447, -187500.02235174447, 0.0, 0.5740000000000001, -0.812, -0.31, 192.0, 0.0, 0.0, 0.0, 0.0, 0.0, 0.0, 0.0, 0.0, 0.0, 1.677704067247751E9, 0.0, 2023-03-01 12:54:27.247
185.0, 18597.54545659369, 20937.884859786613, 0.0, 0.0, 0.0, -187500.02235174447, -187500.02235174447, 0.0, 0.5740000000000001, -0.812, -0.31, 192.0, 0.0, 0.0, 0.0, 0.0, 0.0, 0.0, 0.0, 0.0, 0.0, 1.677704067254777E9, 0.0, 2023-03-01 12:54:27.254
186.0, 18599.244189172292, 20938.53306037582, 0.0, 0.0, 0.0, -187500.02235174447, -187500.02235174447, 0.0, 0.5740000000000001, -0.812, -0.31, 192.0, 0.0, 0.0, 0.0, 0.0, 0.0, 0.0, 0.0, 0.0, 0.0, 1.677704067254787E9, 0.0, 2023-03-01 12:54:27.254
187.0, 18604.429793885924, 20942.221098210943, 0.0, 0.0, 0.0, -187500.02235174447, -187500.02235174447, 0.0, 0.5740000000000001, -0.812, -0.31, 192.0, 0.0, 0.0, 0.0, 0.0, 0.0, 0.0, 0.0, 0.0, 0.0, 1.677704067261337E9, 0.0, 2023-03-01 12:54:27.261
188.0, 18597.053718215673, 20938.71187433146, 0.0, 0.0, 0.0, -187500.02235174447, -187500.02235174447, 0.0, 0.5740000000000001, -0.812, -0.31, 192.0, 0.0, 0.0, 0.0, 0.0, 0.0, 0.0, 0.0, 0.0, 0.0, 1.677704067269387E9, 0.0, 2023-03-01 12:54:27.269
189.0, 18594.34915713658, 20933.593324851194, 0.0, 0.0, 0.0, -187500.02235174447, -187500.02235174447, 0.0, 0.5740000000000001, -0.812, -0.31, 192.0, 0.0, 0.0, 0.0, 0.0, 0.0, 0.0, 0.0, 0.0, 0.0, 1.677704067269405E9, 0.0, 2023-03-01 12:54:27.269
190.0, 18591.689299546397, 20932.72160681744, 0.0, 0.0, 0.0, -187500.02235174447, -187500.02235174447, 0.0, 0.5760000000000001, -0.81, -0.312, 192.0, 18.0, 0.0, 230.0, 176.0, 246.0, 64.0, 0.0, 0.0, 0.0, 1.677704067277425E9, 0.0, 2023-03-01 12:54:27.277
191.0, 18600.92057000644, 20938.57776386473, 0.0, 0.0, 0.0, -187500.02235174447, -187500.02235174447, 0.0, 0.5760000000000001, -0.81, -0.312, 192.0, 0.0, 0.0, 0.0, 0.0, 0.0, 0.0, 0.0, 0.0, 0.0, 1.677704067277469E9, 0.0, 2023-03-01 12:54:27.277
192.0, 18606.866134031552, 20940.09768248769, 0.0, 0.0, 0.0, -187500.02235174447, -187500.02235174447, 0.0, 0.5760000000000001, -0.81, -0.312, 192.0, 0.0, 0.0, 0.0, 0.0, 0.0, 0.0, 0.0, 0.0, 0.0, 1.677704067284403E9, 0.0, 2023-03-01 12:54:27.284
193.0, 18600.58529383961, 20936.834327797216, 0.0, 0.0, 0.0, -187500.02235174447, -187500.02235174447, 0.0, 0.5760000000000001, -0.81, -0.312, 192.0, 0.0, 0.0, 0.0, 0.0, 0.0, 0.0, 0.0, 0.0, 0.0, 1.677704067284415E9, 0.0, 2023-03-01 12:54:27.284
194.0, 18606.77672705373, 20952.212327982466, 0.0, 0.0, 0.0, -187500.02235174447, -187500.02235174447, 0.0, 0.5760000000000001, -0.81, -0.312, 192.0, 0.0, 0.0, 0.0, 0.0, 0.0, 0.0, 0.0, 0.0, 0.0, 1.67770406729198E9, 0.0, 2023-03-01 12:54:27.291
195.0, 18609.01190149926, 20954.447502427996, 0.0, 0.0, 0.0, -187500.02235174447, -187500.02235174447, 0.0, 0.5760000000000001, -0.81, -0.312, 192.0, 0.0, 0.0, 0.0, 0.0, 0.0, 0.0, 0.0, 0.0, 0.0, 1.677704067291989E9, 0.0, 2023-03-01 12:54:27.291
196.0, 18608.07312823214, 20950.312429703765, 0.0, 0.0, 0.0, -187500.02235174447, -187500.02235174447, 0.0, 0.5760000000000001, -0.81, -0.312, 192.0, 0.0, 0.0, 0.0, 0.0, 0.0, 0.0, 0.0, 0.0, 0.0, 1.677704067300051E9, 0.0, 2023-03-01 12:54:27.300
197.0, 18604.854477030574, 20945.61856336815, 0.0, 0.0, 0.0, -187500.02235174447, -187500.02235174447, 0.0, 0.5760000000000001, -0.81, -0.312, 192.0, 0.0, 0.0, 0.0, 0.0, 0.0, 0.0, 0.0, 0.0, 0.0, 1.677704067300064E9, 0.0, 2023-03-01 12:54:27.300
198.0, 18611.023558500237, 20949.82069132575, 0.0, 0.0, 0.0, -187500.02235174447, -187500.02235174447, 0.0, 0.5760000000000001, -0.81, -0.312, 192.0, 0.0, 0.0, 0.0, 0.0, 0.0, 0.0, 0.0, 0.0, 0.0, 1.677704067307969E9, 0.0, 2023-03-01 12:54:27.307
199.0, 18611.694110833898, 20951.0947407597, 0.0, 0.0, 0.0, -187500.02235174447, -187500.02235174447, 0.0, 0.5760000000000001, -0.81, -0.312, 192.0, 0.0, 0.0, 0.0, 0.0, 0.0, 0.0, 0.0, 0.0, 0.0, 1.677704067307988E9, 0.0, 2023-03-01 12:54:27.307
200.0, 18604.228628185825, 20947.920793047047, 0.0, 0.0, 0.0, -187500.02235174447, -187500.02235174447, 0.0, 0.5720000000000001, -0.798, -0.316, 192.0, 17.0, 224.0, 231.0, 16.0, 246.0, 32.0, 0.0, 0.0, 0.0, 1.677704067314544E9, 0.0, 2023-03-01 12:54:27.314
201.0, 18594.617378070045, 20938.868336542648, 0.0, 0.0, 0.0, -187500.02235174447, -187500.02235174447, 0.0, 0.5720000000000001, -0.798, -0.316, 192.0, 0.0, 0.0, 0.0, 0.0, 0.0, 0.0, 0.0, 0.0, 0.0, 1.67770406731456E9, 0.0, 2023-03-01 12:54:27.314
202.0, 18590.996395468283, 20936.633162097118, 0.0, 0.0, 0.0, -187500.02235174447, -187500.02235174447, 0.0, 0.5720000000000001, -0.798, -0.316, 192.0, 0.0, 0.0, 0.0, 0.0, 0.0, 0.0, 0.0, 0.0, 0.0, 1.677704067321695E9, 0.0, 2023-03-01 12:54:27.321
203.0, 18596.49492460429, 20942.891650544603, 0.0, 0.0, 0.0, -187500.02235174447, -187500.02235174447, 0.0, 0.5720000000000001, -0.798, -0.316, 192.0, 0.0, 0.0, 0.0, 0.0, 0.0, 0.0, 0.0, 0.0, 0.0, 1.677704067329694E9, 0.0, 2023-03-01 12:54:27.329
204.0, 18595.265578659248, 20945.95383953498, 0.0, 0.0, 0.0, -187500.02235174447, -187500.02235174447, 0.0, 0.5720000000000001, -0.798, -0.316, 192.0, 0.0, 0.0, 0.0, 0.0, 0.0, 0.0, 0.0, 0.0, 0.0, 1.677704067329705E9, 0.0, 2023-03-01 12:54:27.329
205.0, 18599.557113594667, 20947.786682580314, 0.0, 0.0, 0.0, -187500.02235174447, -187500.02235174447, 0.0, 0.5720000000000001, -0.798, -0.316, 192.0, 0.0, 0.0, 0.0, 0.0, 0.0, 0.0, 0.0, 0.0, 0.0, 1.677704067336722E9, 0.0, 2023-03-01 12:54:27.336
206.0, 18600.96527349535, 20953.66519137206, 0.0, 0.0, 0.0, -187500.02235174447, -187500.02235174447, 0.0, 0.5720000000000001, -0.798, -0.316, 192.0, 0.0, 0.0, 0.0, 0.0, 0.0, 0.0, 0.0, 0.0, 0.0, 1.677704067336733E9, 0.0, 2023-03-01 12:54:27.336
207.0, 18597.187828682403, 20953.598136138695, 0.0, 0.0, 0.0, -187500.02235174447, -187500.02235174447, 0.0, 0.5720000000000001, -0.798, -0.316, 192.0, 0.0, 0.0, 0.0, 0.0, 0.0, 0.0, 0.0, 0.0, 0.0, 1.677704067344245E9, 0.0, 2023-03-01 12:54:27.344
208.0, 18591.689299546397, 20945.73032209043, 0.0, 0.0, 0.0, -187500.02235174447, -187500.02235174447, 0.0, 0.5720000000000001, -0.798, -0.316, 192.0, 0.0, 0.0, 0.0, 0.0, 0.0, 0.0, 0.0, 0.0, 0.0, 1.677704067344254E9, 0.0, 2023-03-01 12:54:27.344
209.0, 18588.694165789388, 20942.511670888864, 0.0, 0.0, 0.0, -187500.02235174447, -187500.02235174447, 0.0, 0.5720000000000001, -0.798, -0.316, 192.0, 0.0, 0.0, 0.0, 0.0, 0.0, 0.0, 0.0, 0.0, 0.0, 1.677704067352307E9, 0.0, 2023-03-01 12:54:27.352
210.0, 18585.05083144317, 20945.797377323794, 0.0, 0.0, 0.0, -187500.02235174447, -187500.02235174447, 0.0, 0.5720000000000001, -0.798, -0.316, 192.0, 0.0, 0.0, 0.0, 0.0, 0.0, 0.0, 0.0, 0.0, 0.0, 1.677704067352327E9, 0.0, 2023-03-01 12:54:27.352
211.0, 18606.97789275383, 20967.90325259009, 0.0, 0.0, 0.0, -187500.02235174447, -187500.02235174447, 0.0, 0.5740000000000001, -0.8, -0.318, 192.0, 17.0, 240.0, 231.0, 0.0, 246.0, 16.0, 0.0, 0.0, 0.0, 1.677704067360312E9, 0.0, 2023-03-01 12:54:27.360
212.0, 18625.90982030747, 20983.616528942173, 0.0, 0.0, 0.0, -187500.02235174447, -187500.02235174447, 0.0, 0.5740000000000001, -0.8, -0.318, 192.0, 0.0, 0.0, 0.0, 0.0, 0.0, 0.0, 0.0, 0.0, 0.0, 1.67770406736033E9, 0.0, 2023-03-01 12:54:27.360
213.0, 18612.945808523396, 20961.57770890924, 0.0, 0.0, 0.0, -187500.02235174447, -187500.02235174447, 0.0, 0.5740000000000001, -0.8, -0.318, 192.0, 0.0, 0.0, 0.0, 0.0, 0.0, 0.0, 0.0, 0.0, 0.0, 1.677704067366817E9, 0.0, 2023-03-01 12:54:27.366
214.0, 18583.799133753673, 20938.220135953445, 0.0, 0.0, 0.0, -187500.02235174447, -187500.02235174447, 0.0, 0.5740000000000001, -0.8, -0.318, 192.0, 0.0, 0.0, 0.0, 0.0, 0.0, 0.0, 0.0, 0.0, 0.0, 1.677704067366832E9, 0.0, 2023-03-01 12:54:27.366
215.0, 18594.05858445866, 20950.491243659406, 0.0, 0.0, 0.0, -187500.02235174447, -187500.02235174447, 0.0, 0.5740000000000001, -0.8, -0.318, 192.0, 0.0, 0.0, 0.0, 0.0, 0.0, 0.0, 0.0, 0.0, 0.0, 1.677704067374974E9, 0.0, 2023-03-01 12:54:27.374
216.0, 18617.706730092374, 20973.133560792634, 0.0, 0.0, 0.0, -187500.02235174447, -187500.02235174447, 0.0, 0.5740000000000001, -0.8, -0.318, 192.0, 0.0, 0.0, 0.0, 0.0, 0.0, 0.0, 0.0, 0.0, 0.0, 1.677704067374986E9, 0.0, 2023-03-01 12:54:27.374
217.0, 18621.752395838786, 20973.401781726097, 0.0, 0.0, 0.0, -187500.02235174447, -187500.02235174447, 0.0, 0.5740000000000001, -0.8, -0.318, 192.0, 0.0, 0.0, 0.0, 0.0, 0.0, 0.0, 0.0, 0.0, 0.0, 1.677704067382075E9, 0.0, 2023-03-01 12:54:27.382
218.0, 18624.322846451145, 20973.781761381837, 0.0, 0.0, 0.0, -187500.02235174447, -187500.02235174447, 0.0, 0.5740000000000001, -0.8, -0.318, 192.0, 0.0, 0.0, 0.0, 0.0, 0.0, 0.0, 0.0, 0.0, 0.0, 1.677704067389951E9, 0.0, 2023-03-01 12:54:27.389
219.0, 18616.11975623605, 20967.120941534155, 0.0, 0.0, 0.0, -187500.02235174447, -187500.02235174447, 0.0, 0.5740000000000001, -0.8, -0.318, 192.0, 0.0, 0.0, 0.0, 0.0, 0.0, 0.0, 0.0, 0.0, 0.0, 1.677704067389962E9, 0.0, 2023-03-01 12:54:27.389
220.0, 18609.123660221536, 20961.33183972023, 0.0, 0.0, 0.0, -187500.02235174447, -187500.02235174447, 0.0, 0.5740000000000001, -0.8, -0.318, 192.0, 0.0, 0.0, 0.0, 0.0, 0.0, 0.0, 0.0, 0.0, 0.0, 1.677704067396513E9, 0.0, 2023-03-01 12:54:27.396
221.0, 18606.799078798187, 20963.276441487844, 0.0, 0.0, 0.0, -187500.02235174447, -187500.02235174447, 0.0, 0.578, -0.806, -0.32, 192.0, 18.0, 16.0, 230.0, 208.0, 246.0, 0.0, 0.0, 0.0, 0.0, 1.677704067396528E9, 0.0, 2023-03-01 12:54:27.396
222.0, 18613.437546901412, 20971.121903791656, 0.0, 0.0, 0.0, -187500.02235174447, -187500.02235174447, 0.0, 0.578, -0.806, -0.32, 192.0, 0.0, 0.0, 0.0, 0.0, 0.0, 0.0, 0.0, 0.0, 0.0, 1.677704067404656E9, 0.0, 2023-03-01 12:54:27.404
223.0, 18614.890410291006, 20966.85272060069, 0.0, 0.0, 0.0, -187500.02235174447, -187500.02235174447, 0.0, 0.578, -0.806, -0.32, 192.0, 0.0, 0.0, 0.0, 0.0, 0.0, 0.0, 0.0, 0.0, 0.0, 1.677704067404672E9, 0.0, 2023-03-01 12:54:27.404
224.0, 18618.69020684841, 20972.530063692342, 0.0, 0.0, 0.0, -187500.02235174447, -187500.02235174447, 0.0, 0.578, -0.806, -0.32, 192.0, 0.0, 0.0, 0.0, 0.0, 0.0, 0.0, 0.0, 0.0, 0.0, 1.67770406741252E9, 0.0, 2023-03-01 12:54:27.412
225.0, 18622.646465617, 20983.951805109, 0.0, 0.0, 0.0, -187500.02235174447, -187500.02235174447, 0.0, 0.578, -0.806, -0.32, 192.0, 0.0, 0.0, 0.0, 0.0, 0.0, 0.0, 0.0, 0.0, 0.0, 1.677704067412535E9, 0.0, 2023-03-01 12:54:27.412
226.0, 18620.746567338298, 20972.038325314323, 0.0, 0.0, 0.0, -187500.02235174447, -187500.02235174447, 0.0, 0.578, -0.806, -0.32, 192.0, 0.0, 0.0, 0.0, 0.0, 0.0, 0.0, 0.0, 0.0, 0.0, 1.677704067419656E9, 0.0, 2023-03-01 12:54:27.419
227.0, 18633.30824772218, 20982.0519068303, 0.0, 0.0, 0.0, -187500.02235174447, -187500.02235174447, 0.0, 0.578, -0.806, -0.32, 192.0, 0.0, 0.0, 0.0, 0.0, 0.0, 0.0, 0.0, 0.0, 0.0, 1.677704067419668E9, 0.0, 2023-03-01 12:54:27.419
228.0, 18623.764052839764, 20972.328897992244, 0.0, 0.0, 0.0, -187500.02235174447, -187500.02235174447, 0.0, 0.578, -0.806, -0.32, 192.0, 0.0, 0.0, 0.0, 0.0, 0.0, 0.0, 0.0, 0.0, 0.0, 1.677704067428587E9, 0.0, 2023-03-01 12:54:27.428
229.0, 18617.907895792472, 20968.394990968107, 0.0, 0.0, 0.0, -187500.02235174447, -187500.02235174447, 0.0, 0.578, -0.806, -0.32, 192.0, 0.0, 0.0, 0.0, 0.0, 0.0, 0.0, 0.0, 0.0, 0.0, 1.677704067428598E9, 0.0, 2023-03-01 12:54:27.428
230.0, 18618.39963417049, 20969.490226446418, 0.0, 0.0, 0.0, -187500.02235174447, -187500.02235174447, 0.0, 0.578, -0.806, -0.32, 192.0, 0.0, 0.0, 0.0, 0.0, 0.0, 0.0, 0.0, 0.0, 0.0, 1.677704067436592E9, 0.0, 2023-03-01 12:54:27.436
231.0, 18624.568715640155, 20972.954746836993, 0.0, 0.0, 0.0, -187500.02235174447, -187500.02235174447, 0.0, 0.5720000000000001, -0.81, -0.318, 192.0, 17.0, 224.0, 230.0, 176.0, 246.0, 16.0, 0.0, 0.0, 0.0, 1.677704067436612E9, 0.0, 2023-03-01 12:54:27.436
232.0, 18614.77865156873, 20965.042229299812, 0.0, 0.0, 0.0, -187500.02235174447, -187500.02235174447, 0.0, 0.5720000000000001, -0.81, -0.318, 192.0, 0.0, 0.0, 0.0, 0.0, 0.0, 0.0, 0.0, 0.0, 0.0, 1.677704067442718E9, 0.0, 2023-03-01 12:54:27.442
233.0, 18617.527916136733, 20965.62337465565, 0.0, 0.0, 0.0, -187500.02235174447, -187500.02235174447, 0.0, 0.5720000000000001, -0.81, -0.318, 192.0, 0.0, 0.0, 0.0, 0.0, 0.0, 0.0, 0.0, 0.0, 0.0, 1.677704067449185E9, 0.0, 2023-03-01 12:54:27.449
234.0, 18624.747529595796, 20970.563110180272, 0.0, 0.0, 0.0, -187500.02235174447, -187500.02235174447, 0.0, 0.5720000000000001, -0.81, -0.318, 192.0, 0.0, 0.0, 0.0, 0.0, 0.0, 0.0, 0.0, 0.0, 0.0, 1.6777040674492E9, 0.0, 2023-03-01 12:54:27.449
235.0, 18626.4462621744, 20981.090781818722, 0.0, 0.0, 0.0, -187500.02235174447, -187500.02235174447, 0.0, 0.5720000000000001, -0.81, -0.318, 192.0, 0.0, 0.0, 0.0, 0.0, 0.0, 0.0, 0.0, 0.0, 0.0, 1.677704067456832E9, 0.0, 2023-03-01 12:54:27.456
236.0, 18621.5959336276, 20977.82742712825, 0.0, 0.0, 0.0, -187500.02235174447, -187500.02235174447, 0.0, 0.5720000000000001, -0.81, -0.318, 192.0, 0.0, 0.0, 0.0, 0.0, 0.0, 0.0, 0.0, 0.0, 0.0, 1.677704067456847E9, 0.0, 2023-03-01 12:54:27.456
237.0, 18627.899125563996, 20976.32986024974, 0.0, 0.0, 0.0, -187500.02235174447, -187500.02235174447, 0.0, 0.5720000000000001, -0.81, -0.318, 192.0, 0.0, 0.0, 0.0, 0.0, 0.0, 0.0, 0.0, 0.0, 0.0, 1.677704067464847E9, 0.0, 2023-03-01 12:54:27.464
238.0, 18629.620209887053, 20980.777857396348, 0.0, 0.0, 0.0, -187500.02235174447, -187500.02235174447, 0.0, 0.5720000000000001, -0.81, -0.318, 192.0, 0.0, 0.0, 0.0, 0.0, 0.0, 0.0, 0.0, 0.0, 0.0, 1.67770406746486E9, 0.0, 2023-03-01 12:54:27.464
239.0, 18626.021579029748, 20980.26376727388, 0.0, 0.0, 0.0, -187500.02235174447, -187500.02235174447, 0.0, 0.5720000000000001, -0.81, -0.318, 192.0, 0.0, 0.0, 0.0, 0.0, 0.0, 0.0, 0.0, 0.0, 0.0, 1.677704067472718E9, 0.0, 2023-03-01 12:54:27.472
240.0, 18627.049759274694, 20984.53295046484, 0.0, 0.0, 0.0, -187500.02235174447, -187500.02235174447, 0.0, 0.5720000000000001, -0.81, -0.318, 192.0, 0.0, 0.0, 0.0, 0.0, 0.0, 0.0, 0.0, 0.0, 0.0, 1.677704067472757E9, 0.0, 2023-03-01 12:54:27.472
241.0, 18620.612456871564, 20976.754543394392, 0.0, 0.0, 0.0, -187500.02235174447, -187500.02235174447, 0.0, 0.5720000000000001, -0.81, -0.31, 192.0, 17.0, 224.0, 230.0, 176.0, 246.0, 80.0, 0.0, 0.0, 0.0, 1.6777040674794E9, 0.0, 2023-03-01 12:54:27.479
242.0, 18616.566791125155, 20966.137464778123, 0.0, 0.0, 0.0, -187500.02235174447, -187500.02235174447, 0.0, 0.5720000000000001, -0.81, -0.31, 192.0, 0.0, 0.0, 0.0, 0.0, 0.0, 0.0, 0.0, 0.0, 0.0, 1.677704067479409E9, 0.0, 2023-03-01 12:54:27.479
243.0, 18616.946770780894, 20969.75844737988, 0.0, 0.0, 0.0, -187500.02235174447, -187500.02235174447, 0.0, 0.5720000000000001, -0.81, -0.31, 192.0, 0.0, 0.0, 0.0, 0.0, 0.0, 0.0, 0.0, 0.0, 0.0, 1.67770406748734E9, 0.0, 2023-03-01 12:54:27.487
244.0, 18610.710634077863, 20969.423171213053, 0.0, 0.0, 0.0, -187500.02235174447, -187500.02235174447, 0.0, 0.5720000000000001, -0.81, -0.31, 192.0, 0.0, 0.0, 0.0, 0.0, 0.0, 0.0, 0.0, 0.0, 0.0, 1.677704067487358E9, 0.0, 2023-03-01 12:54:27.487
245.0, 18601.367604895546, 20964.103456032688, 0.0, 0.0, 0.0, -187500.02235174447, -187500.02235174447, 0.0, 0.5720000000000001, -0.81, -0.31, 192.0, 0.0, 0.0, 0.0, 0.0, 0.0, 0.0, 0.0, 0.0, 0.0, 1.677704067495469E9, 0.0, 2023-03-01 12:54:27.495
246.0, 18605.14504970849, 20956.39210419561, 0.0, 0.0, 0.0, -187500.02235174447, -187500.02235174447, 0.0, 0.5720000000000001, -0.81, -0.31, 192.0, 0.0, 0.0, 0.0, 0.0, 0.0, 0.0, 0.0, 0.0, 0.0, 1.677704067495485E9, 0.0, 2023-03-01 12:54:27.495
247.0, 18606.754375309276, 20959.521348419352, 0.0, 0.0, 0.0, -187500.02235174447, -187500.02235174447, 0.0, 0.5720000000000001, -0.81, -0.31, 192.0, 0.0, 0.0, 0.0, 0.0, 0.0, 0.0, 0.0, 0.0, 0.0, 1.677704067501534E9, 0.0, 2023-03-01 12:54:27.501
248.0, 18610.576523611133, 20965.086932788723, 0.0, 0.0, 0.0, -187500.02235174447, -187500.02235174447, 0.0, 0.5720000000000001, -0.81, -0.31, 192.0, 0.0, 0.0, 0.0, 0.0, 0.0, 0.0, 0.0, 0.0, 0.0, 1.67770406750155E9, 0.0, 2023-03-01 12:54:27.501
249.0, 18608.43075614342, 20964.170511266057, 0.0, 0.0, 0.0, -187500.02235174447, -187500.02235174447, 0.0, 0.5720000000000001, -0.81, -0.31, 192.0, 0.0, 0.0, 0.0, 0.0, 0.0, 0.0, 0.0, 0.0, 0.0, 1.6777040675091E9, 0.0, 2023-03-01 12:54:27.509
250.0, 18602.999282240784, 20956.01212453987, 0.0, 0.0, 0.0, -187500.02235174447, -187500.02235174447, 0.0, 0.5720000000000001, -0.81, -0.31, 192.0, 0.0, 0.0, 0.0, 0.0, 0.0, 0.0, 0.0, 0.0, 0.0, 1.677704067516994E9, 0.0, 2023-03-01 12:54:27.516
251.0, 18604.899180519486, 20963.030572298834, 0.0, 0.0, 0.0, -187500.02235174447, -187500.02235174447, 0.0, 0.5720000000000001, -0.81, -0.316, 192.0, 17.0, 224.0, 230.0, 176.0, 246.0, 32.0, 0.0, 0.0, 0.0, 1.677704067517006E9, 0.0, 2023-03-01 12:54:27.517
252.0, 18606.419099142444, 20967.67973514554, 0.0, 0.0, 0.0, -187500.02235174447, -187500.02235174447, 0.0, 0.5720000000000001, -0.81, -0.316, 192.0, 0.0, 0.0, 0.0, 0.0, 0.0, 0.0, 0.0, 0.0, 0.0, 1.677704067525137E9, 0.0, 2023-03-01 12:54:27.525
253.0, 18608.96719801035, 20967.702086889993, 0.0, 0.0, 0.0, -187500.02235174447, -187500.02235174447, 0.0, 0.5720000000000001, -0.81, -0.316, 192.0, 0.0, 0.0, 0.0, 0.0, 0.0, 0.0, 0.0, 0.0, 0.0, 1.677704067525145E9, 0.0, 2023-03-01 12:54:27.525
254.0, 18608.117831721047, 20967.232700256434, 0.0, 0.0, 0.0, -187500.02235174447, -187500.02235174447, 0.0, 0.5720000000000001, -0.81, -0.316, 192.0, 0.0, 0.0, 0.0, 0.0, 0.0, 0.0, 0.0, 0.0, 0.0, 1.677704067531782E9, 0.0, 2023-03-01 12:54:27.531
255.0, 18613.951637023885, 20969.78079912434, 0.0, 0.0, 0.0, -187500.02235174447, -187500.02235174447, 0.0, 0.5720000000000001, -0.81, -0.316, 192.0, 0.0, 0.0, 0.0, 0.0, 0.0, 0.0, 0.0, 0.0, 0.0, 1.677704067531802E9, 0.0, 2023-03-01 12:54:27.531
0.0, 18612.3423114231, 20966.67390664505, 0.0, 0.0, 0.0, -187500.02235174447, -187500.02235174447, 0.0, 0.5720000000000001, -0.81, -0.316, 192.0, 0.0, 0.0, 0.0, 0.0, 0.0, 0.0, 0.0, 0.0, 0.0, 1.677704067539666E9, 0.0, 2023-03-01 12:54:27.539
1.0, 18614.06339574616, 20972.261842758875, 0.0, 0.0, 0.0, -187500.02235174447, -187500.02235174447, 0.0, 0.5720000000000001, -0.81, -0.316, 192.0, 0.0, 0.0, 0.0, 0.0, 0.0, 0.0, 0.0, 0.0, 0.0, 1.677704067539681E9, 0.0, 2023-03-01 12:54:27.539
2.0, 18615.739776580307, 20972.731229392437, 0.0, 0.0, 0.0, -187500.02235174447, -187500.02235174447, 0.0, 0.5720000000000001, -0.81, -0.316, 192.0, 0.0, 0.0, 0.0, 0.0, 0.0, 0.0, 0.0, 0.0, 0.0, 1.677704067547661E9, 0.0, 2023-03-01 12:54:27.547
3.0, 18617.393805670003, 20969.75844737988, 0.0, 0.0, 0.0, -187500.02235174447, -187500.02235174447, 0.0, 0.5720000000000001, -0.81, -0.316, 192.0, 0.0, 0.0, 0.0, 0.0, 0.0, 0.0, 0.0, 0.0, 0.0, 1.677704067547676E9, 0.0, 2023-03-01 12:54:27.547
4.0, 18640.147881525503, 20995.842933159227, 0.0, 0.0, 0.0, -187500.02235174447, -187500.02235174447, 0.0, 0.5720000000000001, -0.81, -0.316, 192.0, 0.0, 0.0, 0.0, 0.0, 0.0, 0.0, 0.0, 0.0, 0.0, 1.677704067554855E9, 0.0, 2023-03-01 12:54:27.554
5.0, 18618.578448126133, 20986.656366188094, 0.0, 0.0, 0.0, -187500.02235174447, -187500.02235174447, 0.0, 0.5640000000000001, -0.81, -0.316, 192.0, 17.0, 160.0, 230.0, 176.0, 246.0, 32.0, 0.0, 0.0, 0.0, 1.677704067554868E9, 0.0, 2023-03-01 12:54:27.554
6.0, 18593.67860480292, 20960.549528664294, 0.0, 0.0, 0.0, -187500.02235174447, -187500.02235174447, 0.0, 0.5640000000000001, -0.81, -0.316, 192.0, 0.0, 0.0, 0.0, 0.0, 0.0, 0.0, 0.0, 0.0, 0.0, 1.677704067562356E9, 0.0, 2023-03-01 12:54:27.562
7.0, 18599.57946533912, 20960.52717691984, 0.0, 0.0, 0.0, -187500.02235174447, -187500.02235174447, 0.0, 0.5640000000000001, -0.81, -0.316, 192.0, 0.0, 0.0, 0.0, 0.0, 0.0, 0.0, 0.0, 0.0, 0.0, 1.677704067562368E9, 0.0, 2023-03-01 12:54:27.562
8.0, 18585.117886676537, 20953.70989486097, 0.0, 0.0, 0.0, -187500.02235174447, -187500.02235174447, 0.0, 0.5640000000000001, -0.81, -0.316, 192.0, 0.0, 0.0, 0.0, 0.0, 0.0, 0.0, 0.0, 0.0, 0.0, 1.677704067569263E9, 0.0, 2023-03-01 12:54:27.569
9.0, 18579.708764518353, 20950.312429703765, 0.0, 0.0, 0.0, -187500.02235174447, -187500.02235174447, 0.0, 0.5640000000000001, -0.81, -0.316, 192.0, 0.0, 0.0, 0.0, 0.0, 0.0, 0.0, 0.0, 0.0, 0.0, 1.677704067577361E9, 0.0, 2023-03-01 12:54:27.577
10.0, 18576.44540982788, 20944.67979010103, 0.0, 0.0, 0.0, -187500.02235174447, -187500.02235174447, 0.0, 0.5640000000000001, -0.81, -0.316, 192.0, 0.0, 0.0, 0.0, 0.0, 0.0, 0.0, 0.0, 0.0, 0.0, 1.677704067577377E9, 0.0, 2023-03-01 12:54:27.577
11.0, 18570.745714991775, 20929.838231782705, 0.0, 0.0, 0.0, -187500.02235174447, -187500.02235174447, 0.0, 0.5640000000000001, -0.81, -0.316, 192.0, 0.0, 0.0, 0.0, 0.0, 0.0, 0.0, 0.0, 0.0, 0.0, 1.67770406758438E9, 0.0, 2023-03-01 12:54:27.584
12.0, 18573.182055137404, 20927.24542942589, 0.0, 0.0, 0.0, -187500.02235174447, -187500.02235174447, 0.0, 0.5640000000000001, -0.81, -0.316, 192.0, 0.0, 0.0, 0.0, 0.0, 0.0, 0.0, 0.0, 0.0, 0.0, 1.677704067584397E9, 0.0, 2023-03-01 12:54:27.584
13.0, 18575.95367144986, 20932.833365539715, 0.0, 0.0, 0.0, -187500.02235174447, -187500.02235174447, 0.0, 0.5640000000000001, -0.81, -0.316, 192.0, 0.0, 0.0, 0.0, 0.0, 0.0, 0.0, 0.0, 0.0, 0.0, 1.67770406759196E9, 0.0, 2023-03-01 12:54:27.591
14.0, 18572.980889437305, 20935.493223129895, 0.0, 0.0, 0.0, -187500.02235174447, -187500.02235174447, 0.0, 0.5640000000000001, -0.81, -0.316, 192.0, 0.0, 0.0, 0.0, 0.0, 0.0, 0.0, 0.0, 0.0, 0.0, 1.677704067591977E9, 0.0, 2023-03-01 12:54:27.591
15.0, 18575.14900864947, 20941.349380177187, 0.0, 0.0, 0.0, -187500.02235174447, -187500.02235174447, 0.0, 0.562, -0.806, -0.314, 192.0, 17.0, 144.0, 230.0, 208.0, 246.0, 48.0, 0.0, 0.0, 0.0, 1.677704067600045E9, 0.0, 2023-03-01 12:54:27.600
16.0, 18575.73015400531, 20942.690484844505, 0.0, 0.0, 0.0, -187500.02235174447, -187500.02235174447, 0.0, 0.562, -0.806, -0.314, 192.0, 0.0, 0.0, 0.0, 0.0, 0.0, 0.0, 0.0, 0.0, 0.0, 1.677704067600059E9, 0.0, 2023-03-01 12:54:27.600
17.0, 18570.29868010267, 20938.28719118681, 0.0, 0.0, 0.0, -187500.02235174447, -187500.02235174447, 0.0, 0.562, -0.806, -0.314, 192.0, 0.0, 0.0, 0.0, 0.0, 0.0, 0.0, 0.0, 0.0, 0.0, 1.677704067609423E9, 0.0, 2023-03-01 12:54:27.609
18.0, 18570.075162658115, 20940.634124354616, 0.0, 0.0, 0.0, -187500.02235174447, -187500.02235174447, 0.0, 0.562, -0.806, -0.314, 192.0, 0.0, 0.0, 0.0, 0.0, 0.0, 0.0, 0.0, 0.0, 0.0, 1.677704067609435E9, 0.0, 2023-03-01 12:54:27.609
19.0, 18571.080991158604, 20941.282324943822, 0.0, 0.0, 0.0, -187500.02235174447, -187500.02235174447, 0.0, 0.562, -0.806, -0.314, 192.0, 0.0, 0.0, 0.0, 0.0, 0.0, 0.0, 0.0, 0.0, 0.0, 1.677704067615497E9, 0.0, 2023-03-01 12:54:27.615
20.0, 18571.595081281077, 20945.685618601517, 0.0, 0.0, 0.0, -187500.02235174447, -187500.02235174447, 0.0, 0.562, -0.806, -0.314, 192.0, 0.0, 0.0, 0.0, 0.0, 0.0, 0.0, 0.0, 0.0, 0.0, 1.677704067615506E9, 0.0, 2023-03-01 12:54:27.615
21.0, 18576.467761572334, 20952.212327982466, 0.0, 0.0, 0.0, -187500.02235174447, -187500.02235174447, 0.0, 0.562, -0.806, -0.314, 192.0, 0.0, 0.0, 0.0, 0.0, 0.0, 0.0, 0.0, 0.0, 0.0, 1.677704067622572E9, 0.0, 2023-03-01 12:54:27.622
22.0, 18576.02072668323, 20945.506804645873, 0.0, 0.0, 0.0, -187500.02235174447, -187500.02235174447, 0.0, 0.562, -0.806, -0.314, 192.0, 0.0, 0.0, 0.0, 0.0, 0.0, 0.0, 0.0, 0.0, 0.0, 1.677704067622588E9, 0.0, 2023-03-01 12:54:27.622
23.0, 18575.797209238674, 20954.179281494533, 0.0, 0.0, 0.0, -187500.02235174447, -187500.02235174447, 0.0, 0.562, -0.806, -0.314, 192.0, 0.0, 0.0, 0.0, 0.0, 0.0, 0.0, 0.0, 0.0, 0.0, 1.677704067629596E9, 0.0, 2023-03-01 12:54:27.629
24.0, 18573.53968304869, 20951.117092504155, 0.0, 0.0, 0.0, -187500.02235174447, -187500.02235174447, 0.0, 0.562, -0.806, -0.314, 192.0, 0.0, 0.0, 0.0, 0.0, 0.0, 0.0, 0.0, 0.0, 0.0, 1.677704067637773E9, 0.0, 2023-03-01 12:54:27.637
25.0, 18574.992546438283, 20943.338685433708, 0.0, 0.0, 0.0, -187500.02235174447, -187500.02235174447, 0.0, 0.5700000000000001, -0.808, -0.32, 192.0, 17.0, 208.0, 230.0, 192.0, 246.0, 0.0, 0.0, 0.0, 0.0, 1.677704067637787E9, 0.0, 2023-03-01 12:54:27.637
26.0, 18575.998374938772, 20942.712836588962, 0.0, 0.0, 0.0, -187500.02235174447, -187500.02235174447, 0.0, 0.5700000000000001, -0.808, -0.32, 192.0, 0.0, 0.0, 0.0, 0.0, 0.0, 0.0, 0.0, 0.0, 0.0, 1.677704067644233E9, 0.0, 2023-03-01 12:54:27.644
27.0, 18572.5338545482, 20941.01410401036, 0.0, 0.0, 0.0, -187500.02235174447, -187500.02235174447, 0.0, 0.5700000000000001, -0.808, -0.32, 192.0, 0.0, 0.0, 0.0, 0.0, 0.0, 0.0, 0.0, 0.0, 0.0, 1.677704067644242E9, 0.0, 2023-03-01 12:54:27.644
28.0, 18574.38904933799, 20943.42809241153, 0.0, 0.0, 0.0, -187500.02235174447, -187500.02235174447, 0.0, 0.5700000000000001, -0.808, -0.32, 192.0, 0.0, 0.0, 0.0, 0.0, 0.0, 0.0, 0.0, 0.0, 0.0, 1.677704067652347E9, 0.0, 2023-03-01 12:54:27.652
29.0, 18574.254938871258, 20939.851813298683, 0.0, 0.0, 0.0, -187500.02235174447, -187500.02235174447, 0.0, 0.5700000000000001, -0.808, -0.32, 192.0, 0.0, 0.0, 0.0, 0.0, 0.0, 0.0, 0.0, 0.0, 0.0, 1.67770406765236E9, 0.0, 2023-03-01 12:54:27.652
30.0, 18577.719459261833, 20943.67396160054, 0.0, 0.0, 0.0, -187500.02235174447, -187500.02235174447, 0.0, 0.5700000000000001, -0.808, -0.32, 192.0, 0.0, 0.0, 0.0, 0.0, 0.0, 0.0, 0.0, 0.0, 0.0, 1.677704067660299E9, 0.0, 2023-03-01 12:54:27.660
31.0, 18576.78068599471, 20948.479586658428, 0.0, 0.0, 0.0, -187500.02235174447, -187500.02235174447, 0.0, 0.5700000000000001, -0.808, -0.32, 192.0, 0.0, 0.0, 0.0, 0.0, 0.0, 0.0, 0.0, 0.0, 0.0, 1.677704067660308E9, 0.0, 2023-03-01 12:54:27.660
32.0, 18569.739886491287, 20946.66909535755, 0.0, 0.0, 0.0, -187500.02235174447, -187500.02235174447, 0.0, 0.5700000000000001, -0.808, -0.32, 192.0, 0.0, 0.0, 0.0, 0.0, 0.0, 0.0, 0.0, 0.0, 0.0, 1.677704067668259E9, 0.0, 2023-03-01 12:54:27.668
33.0, 18577.115962161537, 20958.984906552425, 0.0, 0.0, 0.0, -187500.02235174447, -187500.02235174447, 0.0, 0.5700000000000001, -0.808, -0.32, 192.0, 0.0, 0.0, 0.0, 0.0, 0.0, 0.0, 0.0, 0.0, 0.0, 1.6777040676683E9, 0.0, 2023-03-01 12:54:27.668
34.0, 18575.886616216496, 20954.96159255047, 0.0, 0.0, 0.0, -187500.02235174447, -187500.02235174447, 0.0, 0.5700000000000001, -0.808, -0.32, 192.0, 0.0, 0.0, 0.0, 0.0, 0.0, 0.0, 0.0, 0.0, 0.0, 1.67770406767495E9, 0.0, 2023-03-01 12:54:27.674
35.0, 18572.04211617018, 20953.844005327705, 0.0, 0.0, 0.0, -187500.02235174447, -187500.02235174447, 0.0, 0.5700000000000001, -0.808, -0.32, 192.0, 0.0, 0.0, 0.0, 0.0, 0.0, 0.0, 0.0, 0.0, 0.0, 1.677704067674965E9, 0.0, 2023-03-01 12:54:27.674
36.0, 18576.3336511056, 20954.38044719463, 0.0, 0.0, 0.0, -187500.02235174447, -187500.02235174447, 0.0, 0.5720000000000001, -0.812, -0.32, 192.0, 17.0, 224.0, 230.0, 160.0, 246.0, 0.0, 0.0, 0.0, 0.0, 1.677704067682805E9, 0.0, 2023-03-01 12:54:27.682
37.0, 18596.651386815476, 20969.803150868793, 0.0, 0.0, 0.0, -187500.02235174447, -187500.02235174447, 0.0, 0.5720000000000001, -0.812, -0.32, 192.0, 0.0, 0.0, 0.0, 0.0, 0.0, 0.0, 0.0, 0.0, 0.0, 1.677704067682821E9, 0.0, 2023-03-01 12:54:27.682
38.0, 18629.307285464678, 20994.948863381014, 0.0, 0.0, 0.0, -187500.02235174447, -187500.02235174447, 0.0, 0.5720000000000001, -0.812, -0.32, 192.0, 0.0, 0.0, 0.0, 0.0, 0.0, 0.0, 0.0, 0.0, 0.0, 1.677704067689897E9, 0.0, 2023-03-01 12:54:27.689
39.0, 18597.76897403824, 20984.77881965385, 0.0, 0.0, 0.0, -187500.02235174447, -187500.02235174447, 0.0, 0.5720000000000001, -0.812, -0.32, 192.0, 0.0, 0.0, 0.0, 0.0, 0.0, 0.0, 0.0, 0.0, 0.0, 1.677704067696551E9, 0.0, 2023-03-01 12:54:27.696
40.0, 18550.696200215363, 20940.1423859766, 0.0, 0.0, 0.0, -187500.02235174447, -187500.02235174447, 0.0, 0.5720000000000001, -0.812, -0.32, 192.0, 0.0, 0.0, 0.0, 0.0, 0.0, 0.0, 0.0, 0.0, 0.0, 1.677704067696565E9, 0.0, 2023-03-01 12:54:27.696
41.0, 18556.507653773744, 20939.740054576407, 0.0, 0.0, 0.0, -187500.02235174447, -187500.02235174447, 0.0, 0.5720000000000001, -0.812, -0.32, 192.0, 0.0, 0.0, 0.0, 0.0, 0.0, 0.0, 0.0, 0.0, 0.0, 1.677704067704394E9, 0.0, 2023-03-01 12:54:27.704
42.0, 18554.4289415394, 20942.981057522426, 0.0, 0.0, 0.0, -187500.02235174447, -187500.02235174447, 0.0, 0.5720000000000001, -0.812, -0.32, 192.0, 0.0, 0.0, 0.0, 0.0, 0.0, 0.0, 0.0, 0.0, 0.0, 1.677704067704402E9, 0.0, 2023-03-01 12:54:27.704
43.0, 18551.366752549024, 20936.00731325237, 0.0, 0.0, 0.0, -187500.02235174447, -187500.02235174447, 0.0, 0.5720000000000001, -0.812, -0.32, 192.0, 0.0, 0.0, 0.0, 0.0, 0.0, 0.0, 0.0, 0.0, 0.0, 1.677704067712718E9, 0.0, 2023-03-01 12:54:27.712
44.0, 18545.085912357084, 20929.90528701607, 0.0, 0.0, 0.0, -187500.02235174447, -187500.02235174447, 0.0, 0.5720000000000001, -0.812, -0.32, 192.0, 0.0, 0.0, 0.0, 0.0, 0.0, 0.0, 0.0, 0.0, 0.0, 1.677704067712736E9, 0.0, 2023-03-01 12:54:27.712
45.0, 18531.920734872907, 20923.71385380195, 0.0, 0.0, 0.0, -187500.02235174447, -187500.02235174447, 0.0, 0.5720000000000001, -0.812, -0.32, 192.0, 0.0, 0.0, 0.0, 0.0, 0.0, 0.0, 0.0, 0.0, 0.0, 1.677704067719667E9, 0.0, 2023-03-01 12:54:27.719
46.0, 18536.994580864262, 20931.022874238835, 0.0, 0.0, 0.0, -187500.02235174447, -187500.02235174447, 0.0, 0.5640000000000001, -0.812, -0.312, 192.0, 17.0, 160.0, 230.0, 160.0, 246.0, 64.0, 0.0, 0.0, 0.0, 1.677704067719684E9, 0.0, 2023-03-01 12:54:27.719
47.0, 18531.18312730588, 20922.61861832364, 0.0, 0.0, 0.0, -187500.02235174447, -187500.02235174447, 0.0, 0.5640000000000001, -0.812, -0.312, 192.0, 0.0, 0.0, 0.0, 0.0, 0.0, 0.0, 0.0, 0.0, 0.0, 1.677704067727106E9, 0.0, 2023-03-01 12:54:27.727
48.0, 18531.18312730588, 20929.346493404686, 0.0, 0.0, 0.0, -187500.02235174447, -187500.02235174447, 0.0, 0.5640000000000001, -0.812, -0.312, 192.0, 0.0, 0.0, 0.0, 0.0, 0.0, 0.0, 0.0, 0.0, 0.0, 1.677704067727122E9, 0.0, 2023-03-01 12:54:27.727
49.0, 18540.772025677208, 20940.56706912125, 0.0, 0.0, 0.0, -187500.02235174447, -187500.02235174447, 0.0, 0.5640000000000001, -0.812, -0.312, 192.0, 0.0, 0.0, 0.0, 0.0, 0.0, 0.0, 0.0, 0.0, 0.0, 1.677704067735117E9, 0.0, 2023-03-01 12:54:27.735
50.0, 18536.927525630897, 20937.03549349731, 0.0, 0.0, 0.0, -187500.02235174447, -187500.02235174447, 0.0, 0.5640000000000001, -0.812, -0.312, 192.0, 0.0, 0.0, 0.0, 0.0, 0.0, 0.0, 0.0, 0.0, 0.0, 1.677704067735128E9, 0.0, 2023-03-01 12:54:27.735
51.0, 18539.58738322108, 20940.500013887886, 0.0, 0.0, 0.0, -187500.02235174447, -187500.02235174447, 0.0, 0.5640000000000001, -0.812, -0.312, 192.0, 0.0, 0.0, 0.0, 0.0, 0.0, 0.0, 0.0, 0.0, 0.0, 1.677704067743219E9, 0.0, 2023-03-01 12:54:27.743
52.0, 18543.945973389862, 20939.51653713185, 0.0, 0.0, 0.0, -187500.02235174447, -187500.02235174447, 0.0, 0.5640000000000001, -0.812, -0.312, 192.0, 0.0, 0.0, 0.0, 0.0, 0.0, 0.0, 0.0, 0.0, 0.0, 1.677704067743237E9, 0.0, 2023-03-01 12:54:27.743
53.0, 18541.509633244234, 20938.264839442356, 0.0, 0.0, 0.0, -187500.02235174447, -187500.02235174447, 0.0, 0.5640000000000001, -0.812, -0.312, 192.0, 0.0, 0.0, 0.0, 0.0, 0.0, 0.0, 0.0, 0.0, 0.0, 1.67770406774922E9, 0.0, 2023-03-01 12:54:27.749
54.0, 18543.364828034024, 20938.980095264924, 0.0, 0.0, 0.0, -187500.02235174447, -187500.02235174447, 0.0, 0.5640000000000001, -0.812, -0.312, 192.0, 0.0, 0.0, 0.0, 0.0, 0.0, 0.0, 0.0, 0.0, 0.0, 1.677704067749231E9, 0.0, 2023-03-01 12:54:27.749
55.0, 18542.09077860007, 20938.95774352047, 0.0, 0.0, 0.0, -187500.02235174447, -187500.02235174447, 0.0, 0.5640000000000001, -0.812, -0.312, 192.0, 0.0, 0.0, 0.0, 0.0, 0.0, 0.0, 0.0, 0.0, 0.0, 1.677704067757274E9, 0.0, 2023-03-01 12:54:27.757
56.0, 18540.280287299192, 20941.662304599562, 0.0, 0.0, 0.0, -187500.02235174447, -187500.02235174447, 0.0, 0.56, -0.8140000000000001, -0.316, 192.0, 17.0, 128.0, 230.0, 144.0, 246.0, 32.0, 0.0, 0.0, 0.0, 1.677704067764954E9, 0.0, 2023-03-01 12:54:27.764
57.0, 18539.229755309792, 20942.154042977578, 0.0, 0.0, 0.0, -187500.02235174447, -187500.02235174447, 0.0, 0.56, -0.8140000000000001, -0.316, 192.0, 0.0, 0.0, 0.0, 0.0, 0.0, 0.0, 0.0, 0.0, 0.0, 1.677704067764984E9, 0.0, 2023-03-01 12:54:27.764
58.0, 18542.738979189275, 20947.80903432477, 0.0, 0.0, 0.0, -187500.02235174447, -187500.02235174447, 0.0, 0.56, -0.8140000000000001, -0.316, 192.0, 0.0, 0.0, 0.0, 0.0, 0.0, 0.0, 0.0, 0.0, 0.0, 1.677704067772781E9, 0.0, 2023-03-01 12:54:27.772
59.0, 18544.661229212434, 20947.33964769121, 0.0, 0.0, 0.0, -187500.02235174447, -187500.02235174447, 0.0, 0.56, -0.8140000000000001, -0.316, 192.0, 0.0, 0.0, 0.0, 0.0, 0.0, 0.0, 0.0, 0.0, 0.0, 1.677704067772798E9, 0.0, 2023-03-01 12:54:27.772
60.0, 18537.016932608716, 20938.46600514245, 0.0, 0.0, 0.0, -187500.02235174447, -187500.02235174447, 0.0, 0.56, -0.8140000000000001, -0.316, 192.0, 0.0, 0.0, 0.0, 0.0, 0.0, 0.0, 0.0, 0.0, 0.0, 1.677704067779322E9, 0.0, 2023-03-01 12:54:27.779
61.0, 18535.85464189704, 20933.928601018026, 0.0, 0.0, 0.0, -187500.02235174447, -187500.02235174447, 0.0, 0.56, -0.8140000000000001, -0.316, 192.0, 0.0, 0.0, 0.0, 0.0, 0.0, 0.0, 0.0, 0.0, 0.0, 1.677704067779332E9, 0.0, 2023-03-01 12:54:27.779
62.0, 18539.721493687808, 20937.840156297705, 0.0, 0.0, 0.0, -187500.02235174447, -187500.02235174447, 0.0, 0.56, -0.8140000000000001, -0.316, 192.0, 0.0, 0.0, 0.0, 0.0, 0.0, 0.0, 0.0, 0.0, 0.0, 1.677704067787316E9, 0.0, 2023-03-01 12:54:27.787
63.0, 18533.82063315161, 20934.37563590713, 0.0, 0.0, 0.0, -187500.02235174447, -187500.02235174447, 0.0, 0.56, -0.8140000000000001, -0.316, 192.0, 0.0, 0.0, 0.0, 0.0, 0.0, 0.0, 0.0, 0.0, 0.0, 1.677704067787329E9, 0.0, 2023-03-01 12:54:27.787
64.0, 18535.631124452488, 20935.984961507915, 0.0, 0.0, 0.0, -187500.02235174447, -187500.02235174447, 0.0, 0.56, -0.8140000000000001, -0.316, 192.0, 0.0, 0.0, 0.0, 0.0, 0.0, 0.0, 0.0, 0.0, 0.0, 1.67770406779543E9, 0.0, 2023-03-01 12:54:27.795
65.0, 18537.15104307545, 20943.830423811727, 0.0, 0.0, 0.0, -187500.02235174447, -187500.02235174447, 0.0, 0.56, -0.8140000000000001, -0.316, 192.0, 0.0, 0.0, 0.0, 0.0, 0.0, 0.0, 0.0, 0.0, 0.0, 1.677704067795438E9, 0.0, 2023-03-01 12:54:27.795
66.0, 18534.178261062894, 20939.203612709476, 0.0, 0.0, 0.0, -187500.02235174447, -187500.02235174447, 0.0, 0.554, -0.81, -0.312, 192.0, 17.0, 80.0, 230.0, 176.0, 246.0, 64.0, 0.0, 0.0, 0.0, 1.677704067802511E9, 0.0, 2023-03-01 12:54:27.802
67.0, 18540.257935554735, 20939.605944109673, 0.0, 0.0, 0.0, -187500.02235174447, -187500.02235174447, 0.0, 0.554, -0.81, -0.312, 192.0, 0.0, 0.0, 0.0, 0.0, 0.0, 0.0, 0.0, 0.0, 0.0, 1.677704067802532E9, 0.0, 2023-03-01 12:54:27.802
68.0, 18544.996505379262, 20943.606906367175, 0.0, 0.0, 0.0, -187500.02235174447, -187500.02235174447, 0.0, 0.554, -0.81, -0.312, 192.0, 0.0, 0.0, 0.0, 0.0, 0.0, 0.0, 0.0, 0.0, 0.0, 1.677704067810102E9, 0.0, 2023-03-01 12:54:27.810
69.0, 18542.358999533535, 20941.43878715501, 0.0, 0.0, 0.0, -187500.02235174447, -187500.02235174447, 0.0, 0.554, -0.81, -0.312, 192.0, 0.0, 0.0, 0.0, 0.0, 0.0, 0.0, 0.0, 0.0, 0.0, 1.677704067810125E9, 0.0, 2023-03-01 12:54:27.810
70.0, 18539.542679732167, 20940.634124354616, 0.0, 0.0, 0.0, -187500.02235174447, -187500.02235174447, 0.0, 0.554, -0.81, -0.312, 192.0, 0.0, 0.0, 0.0, 0.0, 0.0, 0.0, 0.0, 0.0, 0.0, 1.677704067817067E9, 0.0, 2023-03-01 12:54:27.817
71.0, 18542.537813489176, 20940.500013887886, 0.0, 0.0, 0.0, -187500.02235174447, -187500.02235174447, 0.0, 0.554, -0.81, -0.312, 192.0, 0.0, 0.0, 0.0, 0.0, 0.0, 0.0, 0.0, 0.0, 0.0, 1.67770406782509E9, 0.0, 2023-03-01 12:54:27.825
72.0, 18539.721493687808, 20938.510708631362, 0.0, 0.0, 0.0, -187500.02235174447, -187500.02235174447, 0.0, 0.554, -0.81, -0.312, 192.0, 0.0, 0.0, 0.0, 0.0, 0.0, 0.0, 0.0, 0.0, 0.0, 1.677704067825103E9, 0.0, 2023-03-01 12:54:27.825
73.0, 18538.179223320392, 20950.066560514755, 0.0, 0.0, 0.0, -187500.02235174447, -187500.02235174447, 0.0, 0.554, -0.81, -0.312, 192.0, 0.0, 0.0, 0.0, 0.0, 0.0, 0.0, 0.0, 0.0, 0.0, 1.677704067832129E9, 0.0, 2023-03-01 12:54:27.832
74.0, 18538.447444253856, 20949.597173881197, 0.0, 0.0, 0.0, -187500.02235174447, -187500.02235174447, 0.0, 0.554, -0.81, -0.312, 192.0, 0.0, 0.0, 0.0, 0.0, 0.0, 0.0, 0.0, 0.0, 0.0, 1.677704067832141E9, 0.0, 2023-03-01 12:54:27.832
75.0, 18539.654438454443, 20942.019932510848, 0.0, 0.0, 0.0, -187500.02235174447, -187500.02235174447, 0.0, 0.554, -0.81, -0.312, 192.0, 0.0, 0.0, 0.0, 0.0, 0.0, 0.0, 0.0, 0.0, 0.0, 1.677704067840961E9, 0.0, 2023-03-01 12:54:27.840
76.0, 18543.81186292313, 20946.803205824282, 0.0, 0.0, 0.0, -187500.02235174447, -187500.02235174447, 0.0, 0.554, -0.81, -0.318, 192.0, 17.0, 80.0, 230.0, 176.0, 246.0, 16.0, 0.0, 0.0, 0.0, 1.677704067840974E9, 0.0, 2023-03-01 12:54:27.840
77.0, 18546.76229319123, 20950.133615748124, 0.0, 0.0, 0.0, -187500.02235174447, -187500.02235174447, 0.0, 0.554, -0.81, -0.318, 192.0, 0.0, 0.0, 0.0, 0.0, 0.0, 0.0, 0.0, 0.0, 0.0, 1.677704067847632E9, 0.0, 2023-03-01 12:54:27.847
78.0, 18545.19767107936, 20950.62535412614, 0.0, 0.0, 0.0, -187500.02235174447, -187500.02235174447, 0.0, 0.554, -0.81, -0.318, 192.0, 0.0, 0.0, 0.0, 0.0, 0.0, 0.0, 0.0, 0.0, 0.0, 1.677704067847651E9, 0.0, 2023-03-01 12:54:27.847
79.0, 18542.67192395591, 20943.450444155987, 0.0, 0.0, 0.0, -187500.02235174447, -187500.02235174447, 0.0, 0.554, -0.81, -0.318, 192.0, 0.0, 0.0, 0.0, 0.0, 0.0, 0.0, 0.0, 0.0, 0.0, 1.67770406785472E9, 0.0, 2023-03-01 12:54:27.854
80.0, 18544.34830479006, 20943.606906367175, 0.0, 0.0, 0.0, -187500.02235174447, -187500.02235174447, 0.0, 0.554, -0.81, -0.318, 192.0, 0.0, 0.0, 0.0, 0.0, 0.0, 0.0, 0.0, 0.0, 0.0, 1.677704067854742E9, 0.0, 2023-03-01 12:54:27.854
81.0, 18544.70593270134, 20946.847909313194, 0.0, 0.0, 0.0, -187500.02235174447, -187500.02235174447, 0.0, 0.554, -0.81, -0.318, 192.0, 0.0, 0.0, 0.0, 0.0, 0.0, 0.0, 0.0, 0.0, 0.0, 1.677704067862389E9, 0.0, 2023-03-01 12:54:27.862
82.0, 18549.66801997042, 20952.189976238013, 0.0, 0.0, 0.0, -187500.02235174447, -187500.02235174447, 0.0, 0.554, -0.81, -0.318, 192.0, 0.0, 0.0, 0.0, 0.0, 0.0, 0.0, 0.0, 0.0, 0.0, 1.677704067862433E9, 0.0, 2023-03-01 12:54:27.862
83.0, 18552.86431942753, 20953.24050822741, 0.0, 0.0, 0.0, -187500.02235174447, -187500.02235174447, 0.0, 0.554, -0.81, -0.318, 192.0, 0.0, 0.0, 0.0, 0.0, 0.0, 0.0, 0.0, 0.0, 0.0, 1.677704067870452E9, 0.0, 2023-03-01 12:54:27.870
84.0, 18552.663153727433, 20955.14040650611, 0.0, 0.0, 0.0, -187500.02235174447, -187500.02235174447, 0.0, 0.554, -0.81, -0.318, 192.0, 0.0, 0.0, 0.0, 0.0, 0.0, 0.0, 0.0, 0.0, 0.0, 1.677704067870469E9, 0.0, 2023-03-01 12:54:27.870
85.0, 18551.14323510447, 20953.374618694143, 0.0, 0.0, 0.0, -187500.02235174447, -187500.02235174447, 0.0, 0.554, -0.81, -0.318, 192.0, 0.0, 0.0, 0.0, 0.0, 0.0, 0.0, 0.0, 0.0, 0.0, 1.677704067877285E9, 0.0, 2023-03-01 12:54:27.877
86.0, 18548.48337751429, 20956.280345473333, 0.0, 0.0, 0.0, -187500.02235174447, -187500.02235174447, 0.0, 0.5660000000000001, -0.806, -0.318, 192.0, 17.0, 176.0, 230.0, 208.0, 246.0, 16.0, 0.0, 0.0, 0.0, 1.677704067884323E9, 0.0, 2023-03-01 12:54:27.884
87.0, 18547.43284552489, 20960.035438541825, 0.0, 0.0, 0.0, -187500.02235174447, -187500.02235174447, 0.0, 0.5660000000000001, -0.806, -0.318, 192.0, 0.0, 0.0, 0.0, 0.0, 0.0, 0.0, 0.0, 0.0, 0.0, 1.677704067884336E9, 0.0, 2023-03-01 12:54:27.884
88.0, 18551.187938593383, 20962.20355775399, 0.0, 0.0, 0.0, -187500.02235174447, -187500.02235174447, 0.0, 0.5660000000000001, -0.806, -0.318, 192.0, 0.0, 0.0, 0.0, 0.0, 0.0, 0.0, 0.0, 0.0, 0.0, 1.677704067892033E9, 0.0, 2023-03-01 12:54:27.892
89.0, 18553.847796183563, 20950.915926804057, 0.0, 0.0, 0.0, -187500.02235174447, -187500.02235174447, 0.0, 0.5660000000000001, -0.806, -0.318, 192.0, 0.0, 0.0, 0.0, 0.0, 0.0, 0.0, 0.0, 0.0, 0.0, 1.677704067892043E9, 0.0, 2023-03-01 12:54:27.892
90.0, 18547.365790291526, 20944.1433482341, 0.0, 0.0, 0.0, -187500.02235174447, -187500.02235174447, 0.0, 0.5660000000000001, -0.806, -0.318, 192.0, 0.0, 0.0, 0.0, 0.0, 0.0, 0.0, 0.0, 0.0, 0.0, 1.677704067900082E9, 0.0, 2023-03-01 12:54:27.900
91.0, 18544.70593270134, 20948.032551769324, 0.0, 0.0, 0.0, -187500.02235174447, -187500.02235174447, 0.0, 0.5660000000000001, -0.806, -0.318, 192.0, 0.0, 0.0, 0.0, 0.0, 0.0, 0.0, 0.0, 0.0, 0.0, 1.677704067900099E9, 0.0, 2023-03-01 12:54:27.900
92.0, 18544.34830479006, 20951.497072159895, 0.0, 0.0, 0.0, -187500.02235174447, -187500.02235174447, 0.0, 0.5660000000000001, -0.806, -0.318, 192.0, 0.0, 0.0, 0.0, 0.0, 0.0, 0.0, 0.0, 0.0, 0.0, 1.677704067908055E9, 0.0, 2023-03-01 12:54:27.908
93.0, 18540.034418110183, 20950.603002381686, 0.0, 0.0, 0.0, -187500.02235174447, -187500.02235174447, 0.0, 0.5660000000000001, -0.806, -0.318, 192.0, 0.0, 0.0, 0.0, 0.0, 0.0, 0.0, 0.0, 0.0, 0.0, 1.677704067908073E9, 0.0, 2023-03-01 12:54:27.908
94.0, 18540.23558381028, 20946.177356979533, 0.0, 0.0, 0.0, -187500.02235174447, -187500.02235174447, 0.0, 0.5660000000000001, -0.806, -0.318, 192.0, 0.0, 0.0, 0.0, 0.0, 0.0, 0.0, 0.0, 0.0, 0.0, 1.677704067914678E9, 0.0, 2023-03-01 12:54:27.914
95.0, 18538.447444253856, 20942.2434499554, 0.0, 0.0, 0.0, -187500.02235174447, -187500.02235174447, 0.0, 0.5660000000000001, -0.806, -0.318, 192.0, 0.0, 0.0, 0.0, 0.0, 0.0, 0.0, 0.0, 0.0, 0.0, 1.677704067914694E9, 0.0, 2023-03-01 12:54:27.914
96.0, 18540.39204602147, 20944.90330754558, 0.0, 0.0, 0.0, -187500.02235174447, -187500.02235174447, 0.0, 0.5700000000000001, -0.804, -0.316, 192.0, 17.0, 208.0, 230.0, 224.0, 246.0, 32.0, 0.0, 0.0, 0.0, 1.677704067922674E9, 0.0, 2023-03-01 12:54:27.922
97.0, 18537.821595409107, 20946.847909313194, 0.0, 0.0, 0.0, -187500.02235174447, -187500.02235174447, 0.0, 0.5700000000000001, -0.804, -0.316, 192.0, 0.0, 0.0, 0.0, 0.0, 0.0, 0.0, 0.0, 0.0, 0.0, 1.677704067922687E9, 0.0, 2023-03-01 12:54:27.922
98.0, 18536.324028530602, 20944.702141845482, 0.0, 0.0, 0.0, -187500.02235174447, -187500.02235174447, 0.0, 0.5700000000000001, -0.804, -0.316, 192.0, 0.0, 0.0, 0.0, 0.0, 0.0, 0.0, 0.0, 0.0, 0.0, 1.677704067930514E9, 0.0, 2023-03-01 12:54:27.930
99.0, 18543.498938500758, 20947.652572113584, 0.0, 0.0, 0.0, -187500.02235174447, -187500.02235174447, 0.0, 0.5700000000000001, -0.804, -0.316, 192.0, 0.0, 0.0, 0.0, 0.0, 0.0, 0.0, 0.0, 0.0, 0.0, 1.677704067930524E9, 0.0, 2023-03-01 12:54:27.930
100.0, 18547.522252502713, 20951.541775648806, 0.0, 0.0, 0.0, -187500.02235174447, -187500.02235174447, 0.0, 0.5700000000000001, -0.804, -0.316, 192.0, 0.0, 0.0, 0.0, 0.0, 0.0, 0.0, 0.0, 0.0, 0.0, 1.677704067939101E9, 0.0, 2023-03-01 12:54:27.939
101.0, 18541.800205922154, 20950.491243659406, 0.0, 0.0, 0.0, -187500.02235174447, -187500.02235174447, 0.0, 0.5700000000000001, -0.804, -0.316, 192.0, 0.0, 0.0, 0.0, 0.0, 0.0, 0.0, 0.0, 0.0, 0.0, 1.67770406794521E9, 0.0, 2023-03-01 12:54:27.945
102.0, 18542.33664778908, 20954.447502427996, 0.0, 0.0, 0.0, -187500.02235174447, -187500.02235174447, 0.0, 0.5700000000000001, -0.804, -0.316, 192.0, 0.0, 0.0, 0.0, 0.0, 0.0, 0.0, 0.0, 0.0, 0.0, 1.677704067945238E9, 0.0, 2023-03-01 12:54:27.945
103.0, 18544.460063512335, 20949.44071167001, 0.0, 0.0, 0.0, -187500.02235174447, -187500.02235174447, 0.0, 0.5700000000000001, -0.804, -0.316, 192.0, 0.0, 0.0, 0.0, 0.0, 0.0, 0.0, 0.0, 0.0, 0.0, 1.677704067952292E9, 0.0, 2023-03-01 12:54:27.952
104.0, 18541.62139196651, 20947.227888968933, 0.0, 0.0, 0.0, -187500.02235174447, -187500.02235174447, 0.0, 0.5700000000000001, -0.804, -0.316, 192.0, 0.0, 0.0, 0.0, 0.0, 0.0, 0.0, 0.0, 0.0, 0.0, 1.677704067952309E9, 0.0, 2023-03-01 12:54:27.952
105.0, 18540.660266954932, 20951.318258204254, 0.0, 0.0, 0.0, -187500.02235174447, -187500.02235174447, 0.0, 0.5700000000000001, -0.804, -0.316, 192.0, 0.0, 0.0, 0.0, 0.0, 0.0, 0.0, 0.0, 0.0, 0.0, 1.677704067961767E9, 0.0, 2023-03-01 12:54:27.961
106.0, 18537.53102273119, 20953.10639776068, 0.0, 0.0, 0.0, -187500.02235174447, -187500.02235174447, 0.0, 0.5700000000000001, -0.804, -0.314, 192.0, 17.0, 208.0, 230.0, 224.0, 246.0, 48.0, 0.0, 0.0, 0.0, 1.677704067961783E9, 0.0, 2023-03-01 12:54:27.961
107.0, 18538.33568553158, 20952.413493682565, 0.0, 0.0, 0.0, -187500.02235174447, -187500.02235174447, 0.0, 0.5700000000000001, -0.804, -0.314, 192.0, 0.0, 0.0, 0.0, 0.0, 0.0, 0.0, 0.0, 0.0, 0.0, 1.677704067967866E9, 0.0, 2023-03-01 12:54:27.967
108.0, 18545.979982135294, 20951.67588611554, 0.0, 0.0, 0.0, -187500.02235174447, -187500.02235174447, 0.0, 0.5700000000000001, -0.804, -0.314, 192.0, 0.0, 0.0, 0.0, 0.0, 0.0, 0.0, 0.0, 0.0, 0.0, 1.677704067967876E9, 0.0, 2023-03-01 12:54:27.967
109.0, 18539.98971462127, 20949.597173881197, 0.0, 0.0, 0.0, -187500.02235174447, -187500.02235174447, 0.0, 0.5700000000000001, -0.804, -0.314, 192.0, 0.0, 0.0, 0.0, 0.0, 0.0, 0.0, 0.0, 0.0, 0.0, 1.677704067974763E9, 0.0, 2023-03-01 12:54:27.974
110.0, 18535.832290152586, 20946.400874424085, 0.0, 0.0, 0.0, -187500.02235174447, -187500.02235174447, 0.0, 0.5700000000000001, -0.804, -0.314, 192.0, 0.0, 0.0, 0.0, 0.0, 0.0, 0.0, 0.0, 0.0, 0.0, 1.677704067974774E9, 0.0, 2023-03-01 12:54:27.974
111.0, 18534.80410990764, 20943.986886022914, 0.0, 0.0, 0.0, -187500.02235174447, -187500.02235174447, 0.0, 0.5700000000000001, -0.804, -0.314, 192.0, 0.0, 0.0, 0.0, 0.0, 0.0, 0.0, 0.0, 0.0, 0.0, 1.677704067983332E9, 0.0, 2023-03-01 12:54:27.983
112.0, 18538.492147742767, 20945.350342434685, 0.0, 0.0, 0.0, -187500.02235174447, -187500.02235174447, 0.0, 0.5700000000000001, -0.804, -0.314, 192.0, 0.0, 0.0, 0.0, 0.0, 0.0, 0.0, 0.0, 0.0, 0.0, 1.677704067983341E9, 0.0, 2023-03-01 12:54:27.983
113.0, 18542.761330933732, 20946.244412212898, 0.0, 0.0, 0.0, -187500.02235174447, -187500.02235174447, 0.0, 0.5700000000000001, -0.804, -0.314, 192.0, 0.0, 0.0, 0.0, 0.0, 0.0, 0.0, 0.0, 0.0, 0.0, 1.677704067990962E9, 0.0, 2023-03-01 12:54:27.990
114.0, 18545.443540268367, 20953.061694271768, 0.0, 0.0, 0.0, -187500.02235174447, -187500.02235174447, 0.0, 0.5700000000000001, -0.804, -0.314, 192.0, 0.0, 0.0, 0.0, 0.0, 0.0, 0.0, 0.0, 0.0, 0.0, 1.677704067991006E9, 0.0, 2023-03-01 12:54:27.991
115.0, 18542.694275700364, 20959.92367981955, 0.0, 0.0, 0.0, -187500.02235174447, -187500.02235174447, 0.0, 0.5700000000000001, -0.804, -0.314, 192.0, 0.0, 0.0, 0.0, 0.0, 0.0, 0.0, 0.0, 0.0, 0.0, 1.677704067997104E9, 0.0, 2023-03-01 12:54:27.997
116.0, 18542.068426855618, 20957.263822229364, 0.0, 0.0, 0.0, -187500.02235174447, -187500.02235174447, 0.0, 0.5700000000000001, -0.804, -0.314, 192.0, 0.0, 0.0, 0.0, 0.0, 0.0, 0.0, 0.0, 0.0, 0.0, 1.677704067997119E9, 0.0, 2023-03-01 12:54:27.997
117.0, 18541.5766884776, 20951.72058960445, 0.0, 0.0, 0.0, -187500.02235174447, -187500.02235174447, 0.0, 0.5660000000000001, -0.81, -0.32, 192.0, 17.0, 176.0, 230.0, 176.0, 246.0, 0.0, 0.0, 0.0, 0.0, 1.677704068004492E9, 0.0, 2023-03-01 12:54:28.004
118.0, 18538.00040936475, 20948.703104102984, 0.0, 0.0, 0.0, -187500.02235174447, -187500.02235174447, 0.0, 0.5660000000000001, -0.81, -0.32, 192.0, 0.0, 0.0, 0.0, 0.0, 0.0, 0.0, 0.0, 0.0, 0.0, 1.677704068012639E9, 0.0, 2023-03-01 12:54:28.012
119.0, 18542.47075825581, 20950.021857025848, 0.0, 0.0, 0.0, -187500.02235174447, -187500.02235174447, 0.0, 0.5660000000000001, -0.81, -0.32, 192.0, 0.0, 0.0, 0.0, 0.0, 0.0, 0.0, 0.0, 0.0, 0.0, 1.67770406801265E9, 0.0, 2023-03-01 12:54:28.012
120.0, 18544.437711767878, 20954.29104021681, 0.0, 0.0, 0.0, -187500.02235174447, -187500.02235174447, 0.0, 0.5660000000000001, -0.81, -0.32, 192.0, 0.0, 0.0, 0.0, 0.0, 0.0, 0.0, 0.0, 0.0, 0.0, 1.677704068020515E9, 0.0, 2023-03-01 12:54:28.020
121.0, 18543.968325134316, 20949.217194225454, 0.0, 0.0, 0.0, -187500.02235174447, -187500.02235174447, 0.0, 0.5660000000000001, -0.81, -0.32, 192.0, 0.0, 0.0, 0.0, 0.0, 0.0, 0.0, 0.0, 0.0, 0.0, 1.677704068020528E9, 0.0, 2023-03-01 12:54:28.020
122.0, 18546.896403657964, 20952.27938321583, 0.0, 0.0, 0.0, -187500.02235174447, -187500.02235174447, 0.0, 0.5660000000000001, -0.81, -0.32, 192.0, 0.0, 0.0, 0.0, 0.0, 0.0, 0.0, 0.0, 0.0, 0.0, 1.677704068027251E9, 0.0, 2023-03-01 12:54:28.027
123.0, 18544.594173979065, 20952.882880316127, 0.0, 0.0, 0.0, -187500.02235174447, -187500.02235174447, 0.0, 0.5660000000000001, -0.81, -0.32, 192.0, 0.0, 0.0, 0.0, 0.0, 0.0, 0.0, 0.0, 0.0, 0.0, 1.677704068027259E9, 0.0, 2023-03-01 12:54:28.027
124.0, 18546.270554813214, 20948.367827936152, 0.0, 0.0, 0.0, -187500.02235174447, -187500.02235174447, 0.0, 0.5660000000000001, -0.81, -0.32, 192.0, 0.0, 0.0, 0.0, 0.0, 0.0, 0.0, 0.0, 0.0, 0.0, 1.677704068035147E9, 0.0, 2023-03-01 12:54:28.035
125.0, 18547.790473436176, 20953.1958047385, 0.0, 0.0, 0.0, -187500.02235174447, -187500.02235174447, 0.0, 0.5660000000000001, -0.81, -0.32, 192.0, 0.0, 0.0, 0.0, 0.0, 0.0, 0.0, 0.0, 0.0, 0.0, 1.677704068035165E9, 0.0, 2023-03-01 12:54:28.035
126.0, 18550.629144982, 20958.694333874504, 0.0, 0.0, 0.0, -187500.02235174447, -187500.02235174447, 0.0, 0.5660000000000001, -0.81, -0.32, 192.0, 0.0, 0.0, 0.0, 0.0, 0.0, 0.0, 0.0, 0.0, 0.0, 1.67770406804324E9, 0.0, 2023-03-01 12:54:28.043
127.0, 18554.540700261678, 20958.023781540847, 0.0, 0.0, 0.0, -187500.02235174447, -187500.02235174447, 0.0, 0.5640000000000001, -0.804, -0.316, 192.0, 17.0, 160.0, 230.0, 224.0, 246.0, 32.0, 0.0, 0.0, 0.0, 1.677704068043255E9, 0.0, 2023-03-01 12:54:28.043
128.0, 18556.775874707208, 20958.090836774212, 0.0, 0.0, 0.0, -187500.02235174447, -187500.02235174447, 0.0, 0.5640000000000001, -0.804, -0.316, 192.0, 0.0, 0.0, 0.0, 0.0, 0.0, 0.0, 0.0, 0.0, 0.0, 1.677704068049777E9, 0.0, 2023-03-01 12:54:28.049
129.0, 18564.040191655182, 20965.846892100202, 0.0, 0.0, 0.0, -187500.02235174447, -187500.02235174447, 0.0, 0.5640000000000001, -0.804, -0.316, 192.0, 0.0, 0.0, 0.0, 0.0, 0.0, 0.0, 0.0, 0.0, 0.0, 1.677704068049792E9, 0.0, 2023-03-01 12:54:28.049
130.0, 18558.742828219274, 20964.43873219952, 0.0, 0.0, 0.0, -187500.02235174447, -187500.02235174447, 0.0, 0.5640000000000001, -0.804, -0.316, 192.0, 0.0, 0.0, 0.0, 0.0, 0.0, 0.0, 0.0, 0.0, 0.0, 1.67770406805773E9, 0.0, 2023-03-01 12:54:28.057
131.0, 18556.06061888464, 20961.555357164783, 0.0, 0.0, 0.0, -187500.02235174447, -187500.02235174447, 0.0, 0.5640000000000001, -0.804, -0.316, 192.0, 0.0, 0.0, 0.0, 0.0, 0.0, 0.0, 0.0, 0.0, 0.0, 1.677704068057757E9, 0.0, 2023-03-01 12:54:28.057
132.0, 18553.937203161386, 20956.749732106895, 0.0, 0.0, 0.0, -187500.02235174447, -187500.02235174447, 0.0, 0.5640000000000001, -0.804, -0.316, 192.0, 0.0, 0.0, 0.0, 0.0, 0.0, 0.0, 0.0, 0.0, 0.0, 1.677704068064797E9, 0.0, 2023-03-01 12:54:28.064
133.0, 18555.85945318454, 20956.86149082917, 0.0, 0.0, 0.0, -187500.02235174447, -187500.02235174447, 0.0, 0.5640000000000001, -0.804, -0.316, 192.0, 0.0, 0.0, 0.0, 0.0, 0.0, 0.0, 0.0, 0.0, 0.0, 1.677704068072774E9, 0.0, 2023-03-01 12:54:28.072
134.0, 18559.86041544204, 20965.06458104427, 0.0, 0.0, 0.0, -187500.02235174447, -187500.02235174447, 0.0, 0.5640000000000001, -0.804, -0.316, 192.0, 0.0, 0.0, 0.0, 0.0, 0.0, 0.0, 0.0, 0.0, 0.0, 1.677704068072783E9, 0.0, 2023-03-01 12:54:28.072
135.0, 18561.179168364903, 20969.35611597969, 0.0, 0.0, 0.0, -187500.02235174447, -187500.02235174447, 0.0, 0.5640000000000001, -0.804, -0.316, 192.0, 0.0, 0.0, 0.0, 0.0, 0.0, 0.0, 0.0, 0.0, 0.0, 1.677704068079493E9, 0.0, 2023-03-01 12:54:28.079
136.0, 18562.408514309947, 20968.082066545736, 0.0, 0.0, 0.0, -187500.02235174447, -187500.02235174447, 0.0, 0.5640000000000001, -0.804, -0.316, 192.0, 0.0, 0.0, 0.0, 0.0, 0.0, 0.0, 0.0, 0.0, 0.0, 1.677704068079514E9, 0.0, 2023-03-01 12:54:28.079
137.0, 18555.56888050662, 20964.461083943974, 0.0, 0.0, 0.0, -187500.02235174447, -187500.02235174447, 0.0, 0.562, -0.808, -0.318, 192.0, 17.0, 144.0, 230.0, 192.0, 246.0, 16.0, 0.0, 0.0, 0.0, 1.677704068087557E9, 0.0, 2023-03-01 12:54:28.087
138.0, 18554.18307235039, 20963.119979276657, 0.0, 0.0, 0.0, -187500.02235174447, -187500.02235174447, 0.0, 0.562, -0.808, -0.318, 192.0, 0.0, 0.0, 0.0, 0.0, 0.0, 0.0, 0.0, 0.0, 0.0, 1.677704068087575E9, 0.0, 2023-03-01 12:54:28.087
139.0, 18555.971211906817, 20964.23756649942, 0.0, 0.0, 0.0, -187500.02235174447, -187500.02235174447, 0.0, 0.562, -0.808, -0.318, 192.0, 0.0, 0.0, 0.0, 0.0, 0.0, 0.0, 0.0, 0.0, 0.0, 1.677704068095559E9, 0.0, 2023-03-01 12:54:28.095
140.0, 18552.10436011605, 20961.220080997955, 0.0, 0.0, 0.0, -187500.02235174447, -187500.02235174447, 0.0, 0.562, -0.808, -0.318, 192.0, 0.0, 0.0, 0.0, 0.0, 0.0, 0.0, 0.0, 0.0, 0.0, 1.677704068095575E9, 0.0, 2023-03-01 12:54:28.095
141.0, 18551.254993826748, 20966.025706055847, 0.0, 0.0, 0.0, -187500.02235174447, -187500.02235174447, 0.0, 0.562, -0.808, -0.318, 192.0, 0.0, 0.0, 0.0, 0.0, 0.0, 0.0, 0.0, 0.0, 0.0, 1.677704068102628E9, 0.0, 2023-03-01 12:54:28.102
142.0, 18556.708819473843, 20968.752618879393, 0.0, 0.0, 0.0, -187500.02235174447, -187500.02235174447, 0.0, 0.562, -0.808, -0.318, 192.0, 0.0, 0.0, 0.0, 0.0, 0.0, 0.0, 0.0, 0.0, 0.0, 1.677704068102639E9, 0.0, 2023-03-01 12:54:28.102
143.0, 18560.240395097782, 20971.99362182541, 0.0, 0.0, 0.0, -187500.02235174447, -187500.02235174447, 0.0, 0.562, -0.808, -0.318, 192.0, 0.0, 0.0, 0.0, 0.0, 0.0, 0.0, 0.0, 0.0, 0.0, 1.677704068110018E9, 0.0, 2023-03-01 12:54:28.110
144.0, 18557.759351463243, 20968.327935734742, 0.0, 0.0, 0.0, -187500.02235174447, -187500.02235174447, 0.0, 0.562, -0.808, -0.318, 192.0, 0.0, 0.0, 0.0, 0.0, 0.0, 0.0, 0.0, 0.0, 0.0, 1.677704068110031E9, 0.0, 2023-03-01 12:54:28.110
145.0, 18560.441560797877, 20975.167569538065, 0.0, 0.0, 0.0, -187500.02235174447, -187500.02235174447, 0.0, 0.562, -0.808, -0.318, 192.0, 0.0, 0.0, 0.0, 0.0, 0.0, 0.0, 0.0, 0.0, 0.0, 1.6777040681181E9, 0.0, 2023-03-01 12:54:28.118
146.0, 18561.112113131538, 20971.39012472512, 0.0, 0.0, 0.0, -187500.02235174447, -187500.02235174447, 0.0, 0.562, -0.808, -0.318, 192.0, 0.0, 0.0, 0.0, 0.0, 0.0, 0.0, 0.0, 0.0, 0.0, 1.677704068118109E9, 0.0, 2023-03-01 12:54:28.118
147.0, 18554.96538340633, 20962.047095542803, 0.0, 0.0, 0.0, -187500.02235174447, -187500.02235174447, 0.0, 0.5680000000000001, -0.81, -0.322, 192.0, 17.0, 192.0, 230.0, 176.0, 245.0, 240.0, 0.0, 0.0, 0.0, 1.677704068125172E9, 0.0, 2023-03-01 12:54:28.125
148.0, 18551.031476382195, 20963.05292404329, 0.0, 0.0, 0.0, -187500.02235174447, -187500.02235174447, 0.0, 0.5680000000000001, -0.81, -0.322, 192.0, 0.0, 0.0, 0.0, 0.0, 0.0, 0.0, 0.0, 0.0, 0.0, 1.677704068132272E9, 0.0, 2023-03-01 12:54:28.132
149.0, 18550.47268277081, 20964.48343568843, 0.0, 0.0, 0.0, -187500.02235174447, -187500.02235174447, 0.0, 0.5680000000000001, -0.81, -0.322, 192.0, 0.0, 0.0, 0.0, 0.0, 0.0, 0.0, 0.0, 0.0, 0.0, 1.677704068132295E9, 0.0, 2023-03-01 12:54:28.132
150.0, 18553.15489210545, 20966.964479322967, 0.0, 0.0, 0.0, -187500.02235174447, -187500.02235174447, 0.0, 0.5680000000000001, -0.81, -0.322, 192.0, 0.0, 0.0, 0.0, 0.0, 0.0, 0.0, 0.0, 0.0, 0.0, 1.677704068139855E9, 0.0, 2023-03-01 12:54:28.139
151.0, 18559.122807875017, 20969.020839812856, 0.0, 0.0, 0.0, -187500.02235174447, -187500.02235174447, 0.0, 0.5680000000000001, -0.81, -0.322, 192.0, 0.0, 0.0, 0.0, 0.0, 0.0, 0.0, 0.0, 0.0, 0.0, 1.67770406813988E9, 0.0, 2023-03-01 12:54:28.139
152.0, 18562.363810821036, 20977.514502705875, 0.0, 0.0, 0.0, -187500.02235174447, -187500.02235174447, 0.0, 0.5680000000000001, -0.81, -0.322, 192.0, 0.0, 0.0, 0.0, 0.0, 0.0, 0.0, 0.0, 0.0, 0.0, 1.677704068147782E9, 0.0, 2023-03-01 12:54:28.147
153.0, 18560.10628463105, 20982.565996952773, 0.0, 0.0, 0.0, -187500.02235174447, -187500.02235174447, 0.0, 0.5680000000000001, -0.81, -0.322, 192.0, 0.0, 0.0, 0.0, 0.0, 0.0, 0.0, 0.0, 0.0, 0.0, 1.677704068147795E9, 0.0, 2023-03-01 12:54:28.147
154.0, 18558.787531708185, 20977.045116072313, 0.0, 0.0, 0.0, -187500.02235174447, -187500.02235174447, 0.0, 0.5680000000000001, -0.81, -0.322, 192.0, 0.0, 0.0, 0.0, 0.0, 0.0, 0.0, 0.0, 0.0, 0.0, 1.677704068155702E9, 0.0, 2023-03-01 12:54:28.155
155.0, 18555.971211906817, 20976.73219164994, 0.0, 0.0, 0.0, -187500.02235174447, -187500.02235174447, 0.0, 0.5680000000000001, -0.81, -0.322, 192.0, 0.0, 0.0, 0.0, 0.0, 0.0, 0.0, 0.0, 0.0, 0.0, 1.677704068155715E9, 0.0, 2023-03-01 12:54:28.155
156.0, 18552.81961593862, 20969.646688657605, 0.0, 0.0, 0.0, -187500.02235174447, -187500.02235174447, 0.0, 0.5680000000000001, -0.81, -0.322, 192.0, 0.0, 0.0, 0.0, 0.0, 0.0, 0.0, 0.0, 0.0, 0.0, 1.677704068162325E9, 0.0, 2023-03-01 12:54:28.162
157.0, 18553.37840955, 20970.943089836015, 0.0, 0.0, 0.0, -187500.02235174447, -187500.02235174447, 0.0, 0.56, -0.81, -0.312, 192.0, 17.0, 128.0, 230.0, 176.0, 246.0, 64.0, 0.0, 0.0, 0.0, 1.677704068162333E9, 0.0, 2023-03-01 12:54:28.162
158.0, 18554.25012758376, 20974.67583116005, 0.0, 0.0, 0.0, -187500.02235174447, -187500.02235174447, 0.0, 0.56, -0.81, -0.312, 192.0, 0.0, 0.0, 0.0, 0.0, 0.0, 0.0, 0.0, 0.0, 0.0, 1.677704068170952E9, 0.0, 2023-03-01 12:54:28.170
159.0, 18553.7807409502, 20971.34542123621, 0.0, 0.0, 0.0, -187500.02235174447, -187500.02235174447, 0.0, 0.56, -0.81, -0.312, 192.0, 0.0, 0.0, 0.0, 0.0, 0.0, 0.0, 0.0, 0.0, 0.0, 1.677704068170971E9, 0.0, 2023-03-01 12:54:28.170
160.0, 18560.799188709163, 20971.546586936307, 0.0, 0.0, 0.0, -187500.02235174447, -187500.02235174447, 0.0, 0.56, -0.81, -0.312, 192.0, 0.0, 0.0, 0.0, 0.0, 0.0, 0.0, 0.0, 0.0, 0.0, 1.677704068178394E9, 0.0, 2023-03-01 12:54:28.178
161.0, 18570.81277022514, 20979.43675272903, 0.0, 0.0, 0.0, -187500.02235174447, -187500.02235174447, 0.0, 0.56, -0.81, -0.312, 192.0, 0.0, 0.0, 0.0, 0.0, 0.0, 0.0, 0.0, 0.0, 0.0, 1.677704068178416E9, 0.0, 2023-03-01 12:54:28.178
162.0, 18567.012973667737, 20975.704011404992, 0.0, 0.0, 0.0, -187500.02235174447, -187500.02235174447, 0.0, 0.56, -0.81, -0.312, 192.0, 0.0, 0.0, 0.0, 0.0, 0.0, 0.0, 0.0, 0.0, 0.0, 1.677704068185822E9, 0.0, 2023-03-01 12:54:28.185
163.0, 18554.227775839303, 20966.62920315614, 0.0, 0.0, 0.0, -187500.02235174447, -187500.02235174447, 0.0, 0.56, -0.81, -0.312, 192.0, 0.0, 0.0, 0.0, 0.0, 0.0, 0.0, 0.0, 0.0, 0.0, 1.677704068191939E9, 0.0, 2023-03-01 12:54:28.191
164.0, 18548.841005425573, 20967.47856944544, 0.0, 0.0, 0.0, -187500.02235174447, -187500.02235174447, 0.0, 0.56, -0.81, -0.312, 192.0, 0.0, 0.0, 0.0, 0.0, 0.0, 0.0, 0.0, 0.0, 0.0, 1.67770406819195E9, 0.0, 2023-03-01 12:54:28.191
165.0, 18549.53390950369, 20970.563110180272, 0.0, 0.0, 0.0, -187500.02235174447, -187500.02235174447, 0.0, 0.56, -0.81, -0.312, 192.0, 0.0, 0.0, 0.0, 0.0, 0.0, 0.0, 0.0, 0.0, 0.0, 1.67770406819989E9, 0.0, 2023-03-01 12:54:28.199
166.0, 18554.518348517224, 20968.193825268012, 0.0, 0.0, 0.0, -187500.02235174447, -187500.02235174447, 0.0, 0.56, -0.81, -0.312, 192.0, 0.0, 0.0, 0.0, 0.0, 0.0, 0.0, 0.0, 0.0, 0.0, 1.677704068199911E9, 0.0, 2023-03-01 12:54:28.199
167.0, 18560.5309677757, 20969.669040402063, 0.0, 0.0, 0.0, -187500.02235174447, -187500.02235174447, 0.0, 0.562, -0.81, -0.306, 192.0, 17.0, 144.0, 230.0, 176.0, 246.0, 112.0, 0.0, 0.0, 0.0, 1.677704068207991E9, 0.0, 2023-03-01 12:54:28.207
168.0, 18558.452255541357, 20978.14035155062, 0.0, 0.0, 0.0, -187500.02235174447, -187500.02235174447, 0.0, 0.562, -0.81, -0.306, 192.0, 0.0, 0.0, 0.0, 0.0, 0.0, 0.0, 0.0, 0.0, 0.0, 1.677704068208002E9, 0.0, 2023-03-01 12:54:28.208
169.0, 18556.373543307014, 20979.61556668467, 0.0, 0.0, 0.0, -187500.02235174447, -187500.02235174447, 0.0, 0.562, -0.81, -0.306, 192.0, 0.0, 0.0, 0.0, 0.0, 0.0, 0.0, 0.0, 0.0, 0.0, 1.677704068215098E9, 0.0, 2023-03-01 12:54:28.215
170.0, 18557.692296229878, 20972.753581136894, 0.0, 0.0, 0.0, -187500.02235174447, -187500.02235174447, 0.0, 0.562, -0.81, -0.306, 192.0, 0.0, 0.0, 0.0, 0.0, 0.0, 0.0, 0.0, 0.0, 0.0, 1.677704068215111E9, 0.0, 2023-03-01 12:54:28.215
171.0, 18558.496959030268, 20968.57380492375, 0.0, 0.0, 0.0, -187500.02235174447, -187500.02235174447, 0.0, 0.562, -0.81, -0.306, 192.0, 0.0, 0.0, 0.0, 0.0, 0.0, 0.0, 0.0, 0.0, 0.0, 1.677704068222577E9, 0.0, 2023-03-01 12:54:28.222
172.0, 18556.708819473843, 20968.685563646028, 0.0, 0.0, 0.0, -187500.02235174447, -187500.02235174447, 0.0, 0.562, -0.81, -0.306, 192.0, 0.0, 0.0, 0.0, 0.0, 0.0, 0.0, 0.0, 0.0, 0.0, 1.677704068222597E9, 0.0, 2023-03-01 12:54:28.222
173.0, 18558.809883452643, 20968.752618879393, 0.0, 0.0, 0.0, -187500.02235174447, -187500.02235174447, 0.0, 0.562, -0.81, -0.306, 192.0, 0.0, 0.0, 0.0, 0.0, 0.0, 0.0, 0.0, 0.0, 0.0, 1.677704068230509E9, 0.0, 2023-03-01 12:54:28.230
174.0, 18559.413380552935, 20971.680697403037, 0.0, 0.0, 0.0, -187500.02235174447, -187500.02235174447, 0.0, 0.562, -0.81, -0.306, 192.0, 0.0, 0.0, 0.0, 0.0, 0.0, 0.0, 0.0, 0.0, 0.0, 1.677704068230527E9, 0.0, 2023-03-01 12:54:28.230
175.0, 18565.269537600227, 20976.73219164994, 0.0, 0.0, 0.0, -187500.02235174447, -187500.02235174447, 0.0, 0.562, -0.81, -0.306, 192.0, 0.0, 0.0, 0.0, 0.0, 0.0, 0.0, 0.0, 0.0, 0.0, 1.677704068238601E9, 0.0, 2023-03-01 12:54:28.238
176.0, 18568.488188801788, 20978.743848650916, 0.0, 0.0, 0.0, -187500.02235174447, -187500.02235174447, 0.0, 0.562, -0.81, -0.306, 192.0, 0.0, 0.0, 0.0, 0.0, 0.0, 0.0, 0.0, 0.0, 0.0, 1.677704068238617E9, 0.0, 2023-03-01 12:54:28.238
177.0, 18564.5319300332, 20976.39691548311, 0.0, 0.0, 0.0, -187500.02235174447, -187500.02235174447, 0.0, 0.5680000000000001, -0.808, -0.312, 192.0, 17.0, 192.0, 230.0, 192.0, 246.0, 64.0, 0.0, 0.0, 0.0, 1.677704068244668E9, 0.0, 2023-03-01 12:54:28.244
178.0, 18562.25205209876, 20976.039287571824, 0.0, 0.0, 0.0, -187500.02235174447, -187500.02235174447, 0.0, 0.5680000000000001, -0.808, -0.312, 192.0, 0.0, 0.0, 0.0, 0.0, 0.0, 0.0, 0.0, 0.0, 0.0, 1.677704068244679E9, 0.0, 2023-03-01 12:54:28.244
179.0, 18558.228738096805, 20980.48728471843, 0.0, 0.0, 0.0, -187500.02235174447, -187500.02235174447, 0.0, 0.5680000000000001, -0.808, -0.312, 192.0, 0.0, 0.0, 0.0, 0.0, 0.0, 0.0, 0.0, 0.0, 0.0, 1.677704068252241E9, 0.0, 2023-03-01 12:54:28.252
180.0, 18559.256918341747, 20978.028592828345, 0.0, 0.0, 0.0, -187500.02235174447, -187500.02235174447, 0.0, 0.5680000000000001, -0.808, -0.312, 192.0, 0.0, 0.0, 0.0, 0.0, 0.0, 0.0, 0.0, 0.0, 0.0, 1.677704068261633E9, 0.0, 2023-03-01 12:54:28.261
181.0, 18563.079066643604, 20973.826464870748, 0.0, 0.0, 0.0, -187500.02235174447, -187500.02235174447, 0.0, 0.5680000000000001, -0.808, -0.312, 192.0, 0.0, 0.0, 0.0, 0.0, 0.0, 0.0, 0.0, 0.0, 0.0, 1.677704068261651E9, 0.0, 2023-03-01 12:54:28.261
182.0, 18564.040191655182, 20970.33959273572, 0.0, 0.0, 0.0, -187500.02235174447, -187500.02235174447, 0.0, 0.5680000000000001, -0.808, -0.312, 192.0, 0.0, 0.0, 0.0, 0.0, 0.0, 0.0, 0.0, 0.0, 0.0, 1.677704068267779E9, 0.0, 2023-03-01 12:54:28.267
183.0, 18559.77100846422, 20970.071371802256, 0.0, 0.0, 0.0, -187500.02235174447, -187500.02235174447, 0.0, 0.5680000000000001, -0.808, -0.312, 192.0, 0.0, 0.0, 0.0, 0.0, 0.0, 0.0, 0.0, 0.0, 0.0, 1.677704068267799E9, 0.0, 2023-03-01 12:54:28.267
184.0, 18559.323973575112, 20968.86437760167, 0.0, 0.0, 0.0, -187500.02235174447, -187500.02235174447, 0.0, 0.5680000000000001, -0.808, -0.312, 192.0, 0.0, 0.0, 0.0, 0.0, 0.0, 0.0, 0.0, 0.0, 0.0, 1.677704068274827E9, 0.0, 2023-03-01 12:54:28.274
185.0, 18556.328839818103, 20964.9975258109, 0.0, 0.0, 0.0, -187500.02235174447, -187500.02235174447, 0.0, 0.5680000000000001, -0.808, -0.312, 192.0, 0.0, 0.0, 0.0, 0.0, 0.0, 0.0, 0.0, 0.0, 0.0, 1.677704068274845E9, 0.0, 2023-03-01 12:54:28.274
186.0, 18558.742828219274, 20965.846892100202, 0.0, 0.0, 0.0, -187500.02235174447, -187500.02235174447, 0.0, 0.5680000000000001, -0.808, -0.312, 192.0, 0.0, 0.0, 0.0, 0.0, 0.0, 0.0, 0.0, 0.0, 0.0, 1.677704068282734E9, 0.0, 2023-03-01 12:54:28.282
187.0, 18555.211252595338, 20957.57674665174, 0.0, 0.0, 0.0, -187500.02235174447, -187500.02235174447, 0.0, 0.5720000000000001, -0.8140000000000001, -0.322, 192.0, 17.0, 224.0, 230.0, 144.0, 245.0, 240.0, 0.0, 0.0, 0.0, 1.67770406828275E9, 0.0, 2023-03-01 12:54:28.282
188.0, 18553.71368571683, 20957.62145014065, 0.0, 0.0, 0.0, -187500.02235174447, -187500.02235174447, 0.0, 0.5720000000000001, -0.8140000000000001, -0.322, 192.0, 0.0, 0.0, 0.0, 0.0, 0.0, 0.0, 0.0, 0.0, 0.0, 1.677704068292267E9, 0.0, 2023-03-01 12:54:28.292
189.0, 18554.473645028313, 20961.1977292535, 0.0, 0.0, 0.0, -187500.02235174447, -187500.02235174447, 0.0, 0.5720000000000001, -0.8140000000000001, -0.322, 192.0, 0.0, 0.0, 0.0, 0.0, 0.0, 0.0, 0.0, 0.0, 0.0, 1.677704068292281E9, 0.0, 2023-03-01 12:54:28.292
190.0, 18551.254993826748, 20961.77887460934, 0.0, 0.0, 0.0, -187500.02235174447, -187500.02235174447, 0.0, 0.5720000000000001, -0.8140000000000001, -0.322, 192.0, 0.0, 0.0, 0.0, 0.0, 0.0, 0.0, 0.0, 0.0, 0.0, 1.677704068298389E9, 0.0, 2023-03-01 12:54:28.298
191.0, 18551.232642082294, 20973.44648521501, 0.0, 0.0, 0.0, -187500.02235174447, -187500.02235174447, 0.0, 0.5720000000000001, -0.8140000000000001, -0.322, 192.0, 0.0, 0.0, 0.0, 0.0, 0.0, 0.0, 0.0, 0.0, 0.0, 1.677704068298401E9, 0.0, 2023-03-01 12:54:28.298
192.0, 18547.231679824792, 20968.462046201475, 0.0, 0.0, 0.0, -187500.02235174447, -187500.02235174447, 0.0, 0.5720000000000001, -0.8140000000000001, -0.322, 192.0, 0.0, 0.0, 0.0, 0.0, 0.0, 0.0, 0.0, 0.0, 0.0, 1.677704068305433E9, 0.0, 2023-03-01 12:54:28.305
193.0, 18551.322049060112, 20961.644764142606, 0.0, 0.0, 0.0, -187500.02235174447, -187500.02235174447, 0.0, 0.5720000000000001, -0.8140000000000001, -0.322, 192.0, 0.0, 0.0, 0.0, 0.0, 0.0, 0.0, 0.0, 0.0, 0.0, 1.677704068305442E9, 0.0, 2023-03-01 12:54:28.305
194.0, 18549.62331648151, 20960.30365947529, 0.0, 0.0, 0.0, -187500.02235174447, -187500.02235174447, 0.0, 0.5720000000000001, -0.8140000000000001, -0.322, 192.0, 0.0, 0.0, 0.0, 0.0, 0.0, 0.0, 0.0, 0.0, 0.0, 1.677704068314098E9, 0.0, 2023-03-01 12:54:28.314
195.0, 18544.996505379262, 20962.15885426508, 0.0, 0.0, 0.0, -187500.02235174447, -187500.02235174447, 0.0, 0.5720000000000001, -0.8140000000000001, -0.322, 192.0, 0.0, 0.0, 0.0, 0.0, 0.0, 0.0, 0.0, 0.0, 0.0, 1.677704068320482E9, 0.0, 2023-03-01 12:54:28.320
196.0, 18547.119921102516, 20960.72834261994, 0.0, 0.0, 0.0, -187500.02235174447, -187500.02235174447, 0.0, 0.5720000000000001, -0.8140000000000001, -0.322, 192.0, 0.0, 0.0, 0.0, 0.0, 0.0, 0.0, 0.0, 0.0, 0.0, 1.677704068320513E9, 0.0, 2023-03-01 12:54:28.320
197.0, 18550.875014171008, 20958.828444341238, 0.0, 0.0, 0.0, -187500.02235174447, -187500.02235174447, 0.0, 0.5720000000000001, -0.8140000000000001, -0.322, 192.0, 0.0, 0.0, 0.0, 0.0, 0.0, 0.0, 0.0, 0.0, 0.0, 1.677704068327232E9, 0.0, 2023-03-01 12:54:28.327
198.0, 18554.272479328214, 20960.52717691984, 0.0, 0.0, 0.0, -187500.02235174447, -187500.02235174447, 0.0, 0.5660000000000001, -0.81, -0.318, 192.0, 17.0, 176.0, 230.0, 176.0, 246.0, 16.0, 0.0, 0.0, 0.0, 1.677704068327248E9, 0.0, 2023-03-01 12:54:28.327
199.0, 18552.886671171986, 20963.969345565958, 0.0, 0.0, 0.0, -187500.02235174447, -187500.02235174447, 0.0, 0.5660000000000001, -0.81, -0.318, 192.0, 0.0, 0.0, 0.0, 0.0, 0.0, 0.0, 0.0, 0.0, 0.0, 1.677704068335757E9, 0.0, 2023-03-01 12:54:28.335
200.0, 18549.556261248144, 20961.868281587158, 0.0, 0.0, 0.0, -187500.02235174447, -187500.02235174447, 0.0, 0.5660000000000001, -0.81, -0.318, 192.0, 0.0, 0.0, 0.0, 0.0, 0.0, 0.0, 0.0, 0.0, 0.0, 1.67770406833577E9, 0.0, 2023-03-01 12:54:28.335
201.0, 18548.90806065894, 20956.86149082917, 0.0, 0.0, 0.0, -187500.02235174447, -187500.02235174447, 0.0, 0.5660000000000001, -0.81, -0.318, 192.0, 0.0, 0.0, 0.0, 0.0, 0.0, 0.0, 0.0, 0.0, 0.0, 1.677704068343186E9, 0.0, 2023-03-01 12:54:28.343
202.0, 18550.182110092894, 20959.67781063054, 0.0, 0.0, 0.0, -187500.02235174447, -187500.02235174447, 0.0, 0.5660000000000001, -0.81, -0.318, 192.0, 0.0, 0.0, 0.0, 0.0, 0.0, 0.0, 0.0, 0.0, 0.0, 1.677704068343199E9, 0.0, 2023-03-01 12:54:28.343
203.0, 18552.171415349414, 20964.52813917734, 0.0, 0.0, 0.0, -187500.02235174447, -187500.02235174447, 0.0, 0.5660000000000001, -0.81, -0.318, 192.0, 0.0, 0.0, 0.0, 0.0, 0.0, 0.0, 0.0, 0.0, 0.0, 1.677704068350238E9, 0.0, 2023-03-01 12:54:28.350
204.0, 18553.13254036099, 20964.259918243875, 0.0, 0.0, 0.0, -187500.02235174447, -187500.02235174447, 0.0, 0.5660000000000001, -0.81, -0.318, 192.0, 0.0, 0.0, 0.0, 0.0, 0.0, 0.0, 0.0, 0.0, 0.0, 1.677704068350247E9, 0.0, 2023-03-01 12:54:28.350
205.0, 18552.7302089608, 20965.28809848882, 0.0, 0.0, 0.0, -187500.02235174447, -187500.02235174447, 0.0, 0.5660000000000001, -0.81, -0.318, 192.0, 0.0, 0.0, 0.0, 0.0, 0.0, 0.0, 0.0, 0.0, 0.0, 1.67770406835775E9, 0.0, 2023-03-01 12:54:28.357
206.0, 18555.591232251078, 20969.087895046225, 0.0, 0.0, 0.0, -187500.02235174447, -187500.02235174447, 0.0, 0.5660000000000001, -0.81, -0.318, 192.0, 0.0, 0.0, 0.0, 0.0, 0.0, 0.0, 0.0, 0.0, 0.0, 1.677704068357769E9, 0.0, 2023-03-01 12:54:28.357
207.0, 18560.28509858669, 20975.502845704897, 0.0, 0.0, 0.0, -187500.02235174447, -187500.02235174447, 0.0, 0.5660000000000001, -0.81, -0.318, 192.0, 0.0, 0.0, 0.0, 0.0, 0.0, 0.0, 0.0, 0.0, 0.0, 1.677704068365764E9, 0.0, 2023-03-01 12:54:28.365
208.0, 18560.553319520157, 20967.81384561227, 0.0, 0.0, 0.0, -187500.02235174447, -187500.02235174447, 0.0, 0.5700000000000001, -0.81, -0.316, 192.0, 17.0, 208.0, 230.0, 176.0, 246.0, 32.0, 0.0, 0.0, 0.0, 1.677704068365779E9, 0.0, 2023-03-01 12:54:28.365
209.0, 18557.71464797433, 20960.48247343093, 0.0, 0.0, 0.0, -187500.02235174447, -187500.02235174447, 0.0, 0.5700000000000001, -0.81, -0.316, 192.0, 0.0, 0.0, 0.0, 0.0, 0.0, 0.0, 0.0, 0.0, 0.0, 1.677704068372754E9, 0.0, 2023-03-01 12:54:28.372
210.0, 18556.038267140182, 20956.660325129073, 0.0, 0.0, 0.0, -187500.02235174447, -187500.02235174447, 0.0, 0.5700000000000001, -0.81, -0.316, 192.0, 0.0, 0.0, 0.0, 0.0, 0.0, 0.0, 0.0, 0.0, 0.0, 1.677704068379709E9, 0.0, 2023-03-01 12:54:28.379
211.0, 18560.441560797877, 20966.62920315614, 0.0, 0.0, 0.0, -187500.02235174447, -187500.02235174447, 0.0, 0.5700000000000001, -0.81, -0.316, 192.0, 0.0, 0.0, 0.0, 0.0, 0.0, 0.0, 0.0, 0.0, 0.0, 1.677704068379724E9, 0.0, 2023-03-01 12:54:28.379
212.0, 18564.040191655182, 20974.00527882639, 0.0, 0.0, 0.0, -187500.02235174447, -187500.02235174447, 0.0, 0.5700000000000001, -0.81, -0.316, 192.0, 0.0, 0.0, 0.0, 0.0, 0.0, 0.0, 0.0, 0.0, 0.0, 1.677704068387422E9, 0.0, 2023-03-01 12:54:28.387
213.0, 18567.124732390017, 20976.419267227564, 0.0, 0.0, 0.0, -187500.02235174447, -187500.02235174447, 0.0, 0.5700000000000001, -0.81, -0.316, 192.0, 0.0, 0.0, 0.0, 0.0, 0.0, 0.0, 0.0, 0.0, 0.0, 1.677704068387437E9, 0.0, 2023-03-01 12:54:28.387
214.0, 18562.58732826559, 20971.703049147494, 0.0, 0.0, 0.0, -187500.02235174447, -187500.02235174447, 0.0, 0.5700000000000001, -0.81, -0.316, 192.0, 0.0, 0.0, 0.0, 0.0, 0.0, 0.0, 0.0, 0.0, 0.0, 1.677704068395467E9, 0.0, 2023-03-01 12:54:28.395
215.0, 18563.43669455489, 20969.71374389097, 0.0, 0.0, 0.0, -187500.02235174447, -187500.02235174447, 0.0, 0.5700000000000001, -0.81, -0.316, 192.0, 0.0, 0.0, 0.0, 0.0, 0.0, 0.0, 0.0, 0.0, 0.0, 1.67770406839548E9, 0.0, 2023-03-01 12:54:28.395
216.0, 18563.459046299344, 20967.67973514554, 0.0, 0.0, 0.0, -187500.02235174447, -187500.02235174447, 0.0, 0.5700000000000001, -0.81, -0.316, 192.0, 0.0, 0.0, 0.0, 0.0, 0.0, 0.0, 0.0, 0.0, 0.0, 1.677704068403415E9, 0.0, 2023-03-01 12:54:28.403
217.0, 18562.833197454598, 20966.897424089602, 0.0, 0.0, 0.0, -187500.02235174447, -187500.02235174447, 0.0, 0.5700000000000001, -0.81, -0.316, 192.0, 0.0, 0.0, 0.0, 0.0, 0.0, 0.0, 0.0, 0.0, 0.0, 1.677704068403433E9, 0.0, 2023-03-01 12:54:28.403
218.0, 18567.549415534668, 20971.43482821403, 0.0, 0.0, 0.0, -187500.02235174447, -187500.02235174447, 0.0, 0.5640000000000001, -0.81, -0.316, 192.0, 17.0, 160.0, 230.0, 176.0, 246.0, 32.0, 0.0, 0.0, 0.0, 1.677704068410026E9, 0.0, 2023-03-01 12:54:28.410
219.0, 18565.62716551151, 20976.28515676083, 0.0, 0.0, 0.0, -187500.02235174447, -187500.02235174447, 0.0, 0.5640000000000001, -0.81, -0.316, 192.0, 0.0, 0.0, 0.0, 0.0, 0.0, 0.0, 0.0, 0.0, 0.0, 1.677704068410047E9, 0.0, 2023-03-01 12:54:28.410
220.0, 18566.09655214507, 20984.57765395375, 0.0, 0.0, 0.0, -187500.02235174447, -187500.02235174447, 0.0, 0.5640000000000001, -0.81, -0.316, 192.0, 0.0, 0.0, 0.0, 0.0, 0.0, 0.0, 0.0, 0.0, 0.0, 1.677704068418144E9, 0.0, 2023-03-01 12:54:28.418
221.0, 18569.449313813366, 20978.38622073963, 0.0, 0.0, 0.0, -187500.02235174447, -187500.02235174447, 0.0, 0.5640000000000001, -0.81, -0.316, 192.0, 0.0, 0.0, 0.0, 0.0, 0.0, 0.0, 0.0, 0.0, 0.0, 1.67770406841816E9, 0.0, 2023-03-01 12:54:28.418
222.0, 18570.946880691874, 20976.3522119942, 0.0, 0.0, 0.0, -187500.02235174447, -187500.02235174447, 0.0, 0.5640000000000001, -0.81, -0.316, 192.0, 0.0, 0.0, 0.0, 0.0, 0.0, 0.0, 0.0, 0.0, 0.0, 1.6777040684261E9, 0.0, 2023-03-01 12:54:28.426
223.0, 18575.43958132739, 20972.44065671452, 0.0, 0.0, 0.0, -187500.02235174447, -187500.02235174447, 0.0, 0.5640000000000001, -0.81, -0.316, 192.0, 0.0, 0.0, 0.0, 0.0, 0.0, 0.0, 0.0, 0.0, 0.0, 1.677704068426112E9, 0.0, 2023-03-01 12:54:28.426
224.0, 18573.271462115226, 20970.38429622463, 0.0, 0.0, 0.0, -187500.02235174447, -187500.02235174447, 0.0, 0.5640000000000001, -0.81, -0.316, 192.0, 0.0, 0.0, 0.0, 0.0, 0.0, 0.0, 0.0, 0.0, 0.0, 1.677704068432234E9, 0.0, 2023-03-01 12:54:28.432
225.0, 18571.01393592524, 20969.24435725741, 0.0, 0.0, 0.0, -187500.02235174447, -187500.02235174447, 0.0, 0.5640000000000001, -0.81, -0.316, 192.0, 0.0, 0.0, 0.0, 0.0, 0.0, 0.0, 0.0, 0.0, 0.0, 1.677704068439663E9, 0.0, 2023-03-01 12:54:28.439
226.0, 18570.991584180785, 20974.87699686015, 0.0, 0.0, 0.0, -187500.02235174447, -187500.02235174447, 0.0, 0.5640000000000001, -0.81, -0.316, 192.0, 0.0, 0.0, 0.0, 0.0, 0.0, 0.0, 0.0, 0.0, 0.0, 1.677704068439677E9, 0.0, 2023-03-01 12:54:28.439
227.0, 18563.660211999442, 20973.29002300382, 0.0, 0.0, 0.0, -187500.02235174447, -187500.02235174447, 0.0, 0.5640000000000001, -0.81, -0.316, 192.0, 0.0, 0.0, 0.0, 0.0, 0.0, 0.0, 0.0, 0.0, 0.0, 1.67770406844775E9, 0.0, 2023-03-01 12:54:28.447
228.0, 18558.29579333017, 20965.019877555358, 0.0, 0.0, 0.0, -187500.02235174447, -187500.02235174447, 0.0, 0.5700000000000001, -0.812, -0.316, 192.0, 17.0, 208.0, 230.0, 160.0, 246.0, 32.0, 0.0, 0.0, 0.0, 1.677704068447804E9, 0.0, 2023-03-01 12:54:28.447
229.0, 18555.99356365127, 20960.48247343093, 0.0, 0.0, 0.0, -187500.02235174447, -187500.02235174447, 0.0, 0.5700000000000001, -0.812, -0.316, 192.0, 0.0, 0.0, 0.0, 0.0, 0.0, 0.0, 0.0, 0.0, 0.0, 1.677704068455678E9, 0.0, 2023-03-01 12:54:28.455
230.0, 18554.920679917417, 20961.465950186965, 0.0, 0.0, 0.0, -187500.02235174447, -187500.02235174447, 0.0, 0.5700000000000001, -0.812, -0.316, 192.0, 0.0, 0.0, 0.0, 0.0, 0.0, 0.0, 0.0, 0.0, 0.0, 1.677704068455721E9, 0.0, 2023-03-01 12:54:28.455
231.0, 18558.742828219274, 20964.77400836635, 0.0, 0.0, 0.0, -187500.02235174447, -187500.02235174447, 0.0, 0.5700000000000001, -0.812, -0.316, 192.0, 0.0, 0.0, 0.0, 0.0, 0.0, 0.0, 0.0, 0.0, 0.0, 1.677704068462293E9, 0.0, 2023-03-01 12:54:28.462
