%OpenBCI Raw EEG Data
%Number of channels = 8
%Sample Rate = 250 Hz
%Board = OpenBCI_GUI$BoardCytonSerial
Sample Index, EXG Channel 0, EXG Channel 1, EXG Channel 2, EXG Channel 3, EXG Channel 4, EXG Channel 5, EXG Channel 6, EXG Channel 7, Accel Channel 0, Accel Channel 1, Accel Channel 2, Other, Other, Other, Other, Other, Other, Other, Analog Channel 0, Analog Channel 1, Analog Channel 2, Timestamp, Other, Timestamp (Formatted)
83.0, 16612.531735006778, 19730.89065920003, 0.0, 0.0, 0.0, -187500.02235174447, -187500.02235174447, 0.0, 0.0, 0.0, 0.0, 192.0, 0.0, 0.0, 0.0, 0.0, 0.0, 0.0, 0.0, 0.0, 0.0, 1.677704197132995E9, 0.0, 2023-03-01 12:56:37.132
84.0, 16608.03903437126, 19727.984932420844, 0.0, 0.0, 0.0, -187500.02235174447, -187500.02235174447, 0.0, 0.0, 0.0, 0.0, 192.0, 0.0, 0.0, 0.0, 0.0, 0.0, 0.0, 0.0, 0.0, 0.0, 1.677704197133031E9, 0.0, 2023-03-01 12:56:37.133
85.0, 16603.34516803565, 19722.642865496025, 0.0, 0.0, 0.0, -187500.02235174447, -187500.02235174447, 0.0, 0.0, 0.0, 0.0, 192.0, 0.0, 0.0, 0.0, 0.0, 0.0, 0.0, 0.0, 0.0, 0.0, 1.677704197133038E9, 0.0, 2023-03-01 12:56:37.133
86.0, 16603.5686854802, 19721.927609673454, 0.0, 0.0, 0.0, -187500.02235174447, -187500.02235174447, 0.0, 0.0, 0.0, 0.0, 192.0, 0.0, 0.0, 0.0, 0.0, 0.0, 0.0, 0.0, 0.0, 0.0, 1.677704197133045E9, 0.0, 2023-03-01 12:56:37.133
87.0, 16604.418051769502, 19726.28619984224, 0.0, 0.0, 0.0, -187500.02235174447, -187500.02235174447, 0.0, 0.0, 0.0, 0.0, 192.0, 0.0, 0.0, 0.0, 0.0, 0.0, 0.0, 0.0, 0.0, 0.0, 1.677704197133052E9, 0.0, 2023-03-01 12:56:37.133
0.0, 0.0, 0.0, 0.0, 0.0, 0.0, 0.0, 0.0, 0.0, 0.514, -0.862, -0.262, 192.0, 16.0, 16.0, 229.0, 16.0, 247.0, 208.0, 0.0, 0.0, 0.0, 1.677704197218657E9, 0.0, 2023-03-01 12:56:37.218
1.0, 15882.121429696255, 19573.288509045662, 0.0, 0.0, 0.0, -187500.02235174447, -187500.02235174447, 0.0, 0.514, -0.862, -0.262, 192.0, 0.0, 0.0, 0.0, 0.0, 0.0, 0.0, 0.0, 0.0, 0.0, 1.677704197233875E9, 0.0, 2023-03-01 12:56:37.233
2.0, 15880.534455839928, 19573.959061379323, 0.0, 0.0, 0.0, -187500.02235174447, -187500.02235174447, 0.0, 0.514, -0.862, -0.262, 192.0, 0.0, 0.0, 0.0, 0.0, 0.0, 0.0, 0.0, 0.0, 0.0, 1.677704197241293E9, 0.0, 2023-03-01 12:56:37.241
3.0, 15887.53055185444, 19580.48577076027, 0.0, 0.0, 0.0, -187500.02235174447, -187500.02235174447, 0.0, 0.514, -0.862, -0.262, 192.0, 0.0, 0.0, 0.0, 0.0, 0.0, 0.0, 0.0, 0.0, 0.0, 1.677704197241309E9, 0.0, 2023-03-01 12:56:37.241
4.0, 15893.81139204638, 19586.744259207757, 0.0, 0.0, 0.0, -187500.02235174447, -187500.02235174447, 0.0, 0.514, -0.862, -0.262, 192.0, 0.0, 0.0, 0.0, 0.0, 0.0, 0.0, 0.0, 0.0, 0.0, 1.677704197247816E9, 0.0, 2023-03-01 12:56:37.247
5.0, 15899.488735138028, 19588.35358480854, 0.0, 0.0, 0.0, -187500.02235174447, -187500.02235174447, 0.0, 0.514, -0.862, -0.262, 192.0, 0.0, 0.0, 0.0, 0.0, 0.0, 0.0, 0.0, 0.0, 0.0, 1.67770419724783E9, 0.0, 2023-03-01 12:56:37.247
6.0, 15896.962988014579, 19581.8715789165, 0.0, 0.0, 0.0, -187500.02235174447, -187500.02235174447, 0.0, 0.514, -0.862, -0.262, 192.0, 0.0, 0.0, 0.0, 0.0, 0.0, 0.0, 0.0, 0.0, 0.0, 1.67770419725584E9, 0.0, 2023-03-01 12:56:37.255
7.0, 15892.514990867972, 19577.669450958903, 0.0, 0.0, 0.0, -187500.02235174447, -187500.02235174447, 0.0, 0.514, -0.862, -0.262, 192.0, 0.0, 0.0, 0.0, 0.0, 0.0, 0.0, 0.0, 0.0, 0.0, 1.677704197255852E9, 0.0, 2023-03-01 12:56:37.255
8.0, 15888.424621632652, 19573.959061379323, 0.0, 0.0, 0.0, -187500.02235174447, -187500.02235174447, 0.0, 0.446, -0.918, -0.22, 192.0, 13.0, 240.0, 227.0, 80.0, 249.0, 32.0, 0.0, 0.0, 0.0, 1.677704197263772E9, 0.0, 2023-03-01 12:56:37.263
9.0, 15884.75893554198, 19573.333212534573, 0.0, 0.0, 0.0, -187500.02235174447, -187500.02235174447, 0.0, 0.446, -0.918, -0.22, 192.0, 0.0, 0.0, 0.0, 0.0, 0.0, 0.0, 0.0, 0.0, 0.0, 1.677704197263782E9, 0.0, 2023-03-01 12:56:37.263
10.0, 15890.257464677987, 19576.484808502773, 0.0, 0.0, 0.0, -187500.02235174447, -187500.02235174447, 0.0, 0.446, -0.918, -0.22, 192.0, 0.0, 0.0, 0.0, 0.0, 0.0, 0.0, 0.0, 0.0, 0.0, 1.677704197271586E9, 0.0, 2023-03-01 12:56:37.271
11.0, 15892.38088040124, 19582.095096361052, 0.0, 0.0, 0.0, -187500.02235174447, -187500.02235174447, 0.0, 0.446, -0.918, -0.22, 192.0, 0.0, 0.0, 0.0, 0.0, 0.0, 0.0, 0.0, 0.0, 0.0, 1.677704197271605E9, 0.0, 2023-03-01 12:56:37.271
12.0, 15887.508200109984, 19574.31668929061, 0.0, 0.0, 0.0, -187500.02235174447, -187500.02235174447, 0.0, 0.446, -0.918, -0.22, 192.0, 0.0, 0.0, 0.0, 0.0, 0.0, 0.0, 0.0, 0.0, 0.0, 1.677704197279088E9, 0.0, 2023-03-01 12:56:37.279
13.0, 15891.039775733921, 19572.953232878834, 0.0, 0.0, 0.0, -187500.02235174447, -187500.02235174447, 0.0, 0.446, -0.918, -0.22, 192.0, 0.0, 0.0, 0.0, 0.0, 0.0, 0.0, 0.0, 0.0, 0.0, 1.677704197279108E9, 0.0, 2023-03-01 12:56:37.279
14.0, 15890.235112933531, 19578.675279459392, 0.0, 0.0, 0.0, -187500.02235174447, -187500.02235174447, 0.0, 0.446, -0.918, -0.22, 192.0, 0.0, 0.0, 0.0, 0.0, 0.0, 0.0, 0.0, 0.0, 0.0, 1.677704197285829E9, 0.0, 2023-03-01 12:56:37.285
15.0, 15887.374089643252, 19574.897834646446, 0.0, 0.0, 0.0, -187500.02235174447, -187500.02235174447, 0.0, 0.446, -0.918, -0.22, 192.0, 0.0, 0.0, 0.0, 0.0, 0.0, 0.0, 0.0, 0.0, 0.0, 1.677704197285844E9, 0.0, 2023-03-01 12:56:37.285
16.0, 15888.625787332749, 19573.199102067843, 0.0, 0.0, 0.0, -187500.02235174447, -187500.02235174447, 0.0, 0.446, -0.918, -0.22, 192.0, 0.0, 0.0, 0.0, 0.0, 0.0, 0.0, 0.0, 0.0, 0.0, 1.67770419729288E9, 0.0, 2023-03-01 12:56:37.292
17.0, 15891.643272834215, 19574.026116612687, 0.0, 0.0, 0.0, -187500.02235174447, -187500.02235174447, 0.0, 0.446, -0.918, -0.22, 192.0, 0.0, 0.0, 0.0, 0.0, 0.0, 0.0, 0.0, 0.0, 0.0, 1.677704197300713E9, 0.0, 2023-03-01 12:56:37.300
18.0, 15899.444031649118, 19582.67624171689, 0.0, 0.0, 0.0, -187500.02235174447, -187500.02235174447, 0.0, 0.394, -0.9500000000000001, -0.192, 192.0, 12.0, 80.0, 226.0, 80.0, 250.0, 0.0, 0.0, 0.0, 0.0, 1.677704197300724E9, 0.0, 2023-03-01 12:56:37.300
19.0, 15890.838610033825, 19577.624747469992, 0.0, 0.0, 0.0, -187500.02235174447, -187500.02235174447, 0.0, 0.394, -0.9500000000000001, -0.192, 192.0, 0.0, 0.0, 0.0, 0.0, 0.0, 0.0, 0.0, 0.0, 0.0, 1.677704197310418E9, 0.0, 2023-03-01 12:56:37.310
20.0, 15888.916360010668, 19577.624747469992, 0.0, 0.0, 0.0, -187500.02235174447, -187500.02235174447, 0.0, 0.394, -0.9500000000000001, -0.192, 192.0, 0.0, 0.0, 0.0, 0.0, 0.0, 0.0, 0.0, 0.0, 0.0, 1.677704197310437E9, 0.0, 2023-03-01 12:56:37.310
21.0, 15885.921226253657, 19578.317651548106, 0.0, 0.0, 0.0, -187500.02235174447, -187500.02235174447, 0.0, 0.394, -0.9500000000000001, -0.192, 192.0, 0.0, 0.0, 0.0, 0.0, 0.0, 0.0, 0.0, 0.0, 0.0, 1.677704197316477E9, 0.0, 2023-03-01 12:56:37.316
22.0, 15896.650063592204, 19584.442029528862, 0.0, 0.0, 0.0, -187500.02235174447, -187500.02235174447, 0.0, 0.394, -0.9500000000000001, -0.192, 192.0, 0.0, 0.0, 0.0, 0.0, 0.0, 0.0, 0.0, 0.0, 0.0, 1.677704197316499E9, 0.0, 2023-03-01 12:56:37.316
23.0, 15905.143726485221, 19595.461439545328, 0.0, 0.0, 0.0, -187500.02235174447, -187500.02235174447, 0.0, 0.394, -0.9500000000000001, -0.192, 192.0, 0.0, 0.0, 0.0, 0.0, 0.0, 0.0, 0.0, 0.0, 0.0, 1.677704197323468E9, 0.0, 2023-03-01 12:56:37.323
24.0, 15902.506220639494, 19585.35845105153, 0.0, 0.0, 0.0, -187500.02235174447, -187500.02235174447, 0.0, 0.394, -0.9500000000000001, -0.192, 192.0, 0.0, 0.0, 0.0, 0.0, 0.0, 0.0, 0.0, 0.0, 0.0, 1.677704197323487E9, 0.0, 2023-03-01 12:56:37.323
25.0, 15885.630653575738, 19566.0688955866, 0.0, 0.0, 0.0, -187500.02235174447, -187500.02235174447, 0.0, 0.394, -0.9500000000000001, -0.192, 192.0, 0.0, 0.0, 0.0, 0.0, 0.0, 0.0, 0.0, 0.0, 0.0, 1.677704197331386E9, 0.0, 2023-03-01 12:56:37.331
26.0, 15886.345909398307, 19578.518817248205, 0.0, 0.0, 0.0, -187500.02235174447, -187500.02235174447, 0.0, 0.394, -0.9500000000000001, -0.192, 192.0, 0.0, 0.0, 0.0, 0.0, 0.0, 0.0, 0.0, 0.0, 0.0, 1.677704197331405E9, 0.0, 2023-03-01 12:56:37.331
27.0, 15884.066031463866, 19579.81521842661, 0.0, 0.0, 0.0, -187500.02235174447, -187500.02235174447, 0.0, 0.394, -0.9500000000000001, -0.192, 192.0, 0.0, 0.0, 0.0, 0.0, 0.0, 0.0, 0.0, 0.0, 0.0, 1.677704197338669E9, 0.0, 2023-03-01 12:56:37.338
28.0, 15897.253560692498, 19584.486733017773, 0.0, 0.0, 0.0, -187500.02235174447, -187500.02235174447, 0.0, 0.376, -0.964, -0.19, 192.0, 11.0, 192.0, 225.0, 224.0, 250.0, 16.0, 0.0, 0.0, 0.0, 1.677704197338721E9, 0.0, 2023-03-01 12:56:37.338
29.0, 15904.070842751365, 19593.852113944544, 0.0, 0.0, 0.0, -187500.02235174447, -187500.02235174447, 0.0, 0.376, -0.964, -0.19, 192.0, 0.0, 0.0, 0.0, 0.0, 0.0, 0.0, 0.0, 0.0, 0.0, 1.677704197346026E9, 0.0, 2023-03-01 12:56:37.346
30.0, 15888.201104188098, 19584.73260220678, 0.0, 0.0, 0.0, -187500.02235174447, -187500.02235174447, 0.0, 0.376, -0.964, -0.19, 192.0, 0.0, 0.0, 0.0, 0.0, 0.0, 0.0, 0.0, 0.0, 0.0, 1.677704197346038E9, 0.0, 2023-03-01 12:56:37.346
31.0, 15887.463496621072, 19585.44785802935, 0.0, 0.0, 0.0, -187500.02235174447, -187500.02235174447, 0.0, 0.376, -0.964, -0.19, 192.0, 0.0, 0.0, 0.0, 0.0, 0.0, 0.0, 0.0, 0.0, 0.0, 1.677704197353141E9, 0.0, 2023-03-01 12:56:37.353
32.0, 15889.519857110961, 19584.77730569569, 0.0, 0.0, 0.0, -187500.02235174447, -187500.02235174447, 0.0, 0.376, -0.964, -0.19, 192.0, 0.0, 0.0, 0.0, 0.0, 0.0, 0.0, 0.0, 0.0, 0.0, 1.677704197361091E9, 0.0, 2023-03-01 12:56:37.361
33.0, 15894.504296124494, 19584.77730569569, 0.0, 0.0, 0.0, -187500.02235174447, -187500.02235174447, 0.0, 0.376, -0.964, -0.19, 192.0, 0.0, 0.0, 0.0, 0.0, 0.0, 0.0, 0.0, 0.0, 0.0, 1.677704197361112E9, 0.0, 2023-03-01 12:56:37.361
34.0, 15890.302168166896, 19582.206855083332, 0.0, 0.0, 0.0, -187500.02235174447, -187500.02235174447, 0.0, 0.376, -0.964, -0.19, 192.0, 0.0, 0.0, 0.0, 0.0, 0.0, 0.0, 0.0, 0.0, 0.0, 1.677704197368406E9, 0.0, 2023-03-01 12:56:37.368
35.0, 15896.694767081115, 19590.812276698623, 0.0, 0.0, 0.0, -187500.02235174447, -187500.02235174447, 0.0, 0.376, -0.964, -0.19, 192.0, 0.0, 0.0, 0.0, 0.0, 0.0, 0.0, 0.0, 0.0, 0.0, 1.677704197368431E9, 0.0, 2023-03-01 12:56:37.368
36.0, 15899.220514204564, 19592.756878466236, 0.0, 0.0, 0.0, -187500.02235174447, -187500.02235174447, 0.0, 0.376, -0.964, -0.19, 192.0, 0.0, 0.0, 0.0, 0.0, 0.0, 0.0, 0.0, 0.0, 0.0, 1.677704197375755E9, 0.0, 2023-03-01 12:56:37.375
37.0, 15904.741395085026, 19598.74714598026, 0.0, 0.0, 0.0, -187500.02235174447, -187500.02235174447, 0.0, 0.376, -0.964, -0.19, 192.0, 0.0, 0.0, 0.0, 0.0, 0.0, 0.0, 0.0, 0.0, 0.0, 1.677704197375772E9, 0.0, 2023-03-01 12:56:37.375
38.0, 15905.479002652051, 19610.660625774937, 0.0, 0.0, 0.0, -187500.02235174447, -187500.02235174447, 0.0, 0.388, -0.976, -0.164, 192.0, 12.0, 32.0, 225.0, 128.0, 250.0, 224.0, 0.0, 0.0, 0.0, 1.677704197383721E9, 0.0, 2023-03-01 12:56:37.383
39.0, 15902.372110172762, 19603.709233249338, 0.0, 0.0, 0.0, -187500.02235174447, -187500.02235174447, 0.0, 0.388, -0.976, -0.164, 192.0, 0.0, 0.0, 0.0, 0.0, 0.0, 0.0, 0.0, 0.0, 0.0, 1.677704197383737E9, 0.0, 2023-03-01 12:56:37.383
40.0, 15894.772517057958, 19593.472134288804, 0.0, 0.0, 0.0, -187500.02235174447, -187500.02235174447, 0.0, 0.388, -0.976, -0.164, 192.0, 0.0, 0.0, 0.0, 0.0, 0.0, 0.0, 0.0, 0.0, 0.0, 1.677704197391668E9, 0.0, 2023-03-01 12:56:37.391
41.0, 15889.944540255612, 19584.464381273316, 0.0, 0.0, 0.0, -187500.02235174447, -187500.02235174447, 0.0, 0.388, -0.976, -0.164, 192.0, 0.0, 0.0, 0.0, 0.0, 0.0, 0.0, 0.0, 0.0, 0.0, 1.67770419739168E9, 0.0, 2023-03-01 12:56:37.391
42.0, 15893.789040301925, 19592.8239336996, 0.0, 0.0, 0.0, -187500.02235174447, -187500.02235174447, 0.0, 0.388, -0.976, -0.164, 192.0, 0.0, 0.0, 0.0, 0.0, 0.0, 0.0, 0.0, 0.0, 0.0, 1.677704197398343E9, 0.0, 2023-03-01 12:56:37.398
43.0, 15891.844438534314, 19589.560579009125, 0.0, 0.0, 0.0, -187500.02235174447, -187500.02235174447, 0.0, 0.388, -0.976, -0.164, 192.0, 0.0, 0.0, 0.0, 0.0, 0.0, 0.0, 0.0, 0.0, 0.0, 1.677704197398362E9, 0.0, 2023-03-01 12:56:37.398
44.0, 15887.709365810082, 19584.77730569569, 0.0, 0.0, 0.0, -187500.02235174447, -187500.02235174447, 0.0, 0.388, -0.976, -0.164, 192.0, 0.0, 0.0, 0.0, 0.0, 0.0, 0.0, 0.0, 0.0, 0.0, 1.677704197406337E9, 0.0, 2023-03-01 12:56:37.406
45.0, 15882.277891907443, 19579.479942259783, 0.0, 0.0, 0.0, -187500.02235174447, -187500.02235174447, 0.0, 0.388, -0.976, -0.164, 192.0, 0.0, 0.0, 0.0, 0.0, 0.0, 0.0, 0.0, 0.0, 0.0, 1.677704197406389E9, 0.0, 2023-03-01 12:56:37.406
46.0, 15881.42852561814, 19580.73163994928, 0.0, 0.0, 0.0, -187500.02235174447, -187500.02235174447, 0.0, 0.388, -0.976, -0.164, 192.0, 0.0, 0.0, 0.0, 0.0, 0.0, 0.0, 0.0, 0.0, 0.0, 1.677704197413337E9, 0.0, 2023-03-01 12:56:37.413
47.0, 15878.56750232786, 19576.95419513633, 0.0, 0.0, 0.0, -187500.02235174447, -187500.02235174447, 0.0, 0.388, -0.976, -0.164, 192.0, 0.0, 0.0, 0.0, 0.0, 0.0, 0.0, 0.0, 0.0, 0.0, 1.677704197421598E9, 0.0, 2023-03-01 12:56:37.421
48.0, 15882.322595396352, 19574.49550324625, 0.0, 0.0, 0.0, -187500.02235174447, -187500.02235174447, 0.0, 0.388, -0.974, -0.17200000000000001, 192.0, 12.0, 32.0, 225.0, 144.0, 250.0, 160.0, 0.0, 0.0, 0.0, 1.677704197421611E9, 0.0, 2023-03-01 12:56:37.421
49.0, 15888.37991814374, 19578.742334692757, 0.0, 0.0, 0.0, -187500.02235174447, -187500.02235174447, 0.0, 0.388, -0.974, -0.17200000000000001, 192.0, 0.0, 0.0, 0.0, 0.0, 0.0, 0.0, 0.0, 0.0, 0.0, 1.677704197427982E9, 0.0, 2023-03-01 12:56:37.427
50.0, 15887.731717554536, 19580.798695182646, 0.0, 0.0, 0.0, -187500.02235174447, -187500.02235174447, 0.0, 0.388, -0.974, -0.17200000000000001, 192.0, 0.0, 0.0, 0.0, 0.0, 0.0, 0.0, 0.0, 0.0, 0.0, 1.677704197427997E9, 0.0, 2023-03-01 12:56:37.427
51.0, 15891.777383300947, 19581.759820194224, 0.0, 0.0, 0.0, -187500.02235174447, -187500.02235174447, 0.0, 0.388, -0.974, -0.17200000000000001, 192.0, 0.0, 0.0, 0.0, 0.0, 0.0, 0.0, 0.0, 0.0, 0.0, 1.677704197436035E9, 0.0, 2023-03-01 12:56:37.436
52.0, 15897.924113026156, 19587.45951503033, 0.0, 0.0, 0.0, -187500.02235174447, -187500.02235174447, 0.0, 0.388, -0.974, -0.17200000000000001, 192.0, 0.0, 0.0, 0.0, 0.0, 0.0, 0.0, 0.0, 0.0, 0.0, 1.677704197436043E9, 0.0, 2023-03-01 12:56:37.436
53.0, 15895.420717647163, 19582.832703928078, 0.0, 0.0, 0.0, -187500.02235174447, -187500.02235174447, 0.0, 0.388, -0.974, -0.17200000000000001, 192.0, 0.0, 0.0, 0.0, 0.0, 0.0, 0.0, 0.0, 0.0, 0.0, 1.677704197444011E9, 0.0, 2023-03-01 12:56:37.444
54.0, 15895.1524967137, 19580.910453904922, 0.0, 0.0, 0.0, -187500.02235174447, -187500.02235174447, 0.0, 0.388, -0.974, -0.17200000000000001, 192.0, 0.0, 0.0, 0.0, 0.0, 0.0, 0.0, 0.0, 0.0, 0.0, 1.677704197444031E9, 0.0, 2023-03-01 12:56:37.444
55.0, 15883.797810530403, 19580.709288204824, 0.0, 0.0, 0.0, -187500.02235174447, -187500.02235174447, 0.0, 0.388, -0.974, -0.17200000000000001, 192.0, 0.0, 0.0, 0.0, 0.0, 0.0, 0.0, 0.0, 0.0, 0.0, 1.677704197451247E9, 0.0, 2023-03-01 12:56:37.451
56.0, 15881.875560507246, 19573.31086079012, 0.0, 0.0, 0.0, -187500.02235174447, -187500.02235174447, 0.0, 0.388, -0.974, -0.17200000000000001, 192.0, 0.0, 0.0, 0.0, 0.0, 0.0, 0.0, 0.0, 0.0, 0.0, 1.677704197451265E9, 0.0, 2023-03-01 12:56:37.451
57.0, 15890.883313522734, 19577.44593351435, 0.0, 0.0, 0.0, -187500.02235174447, -187500.02235174447, 0.0, 0.388, -0.974, -0.17200000000000001, 192.0, 0.0, 0.0, 0.0, 0.0, 0.0, 0.0, 0.0, 0.0, 0.0, 1.677704197458611E9, 0.0, 2023-03-01 12:56:37.458
58.0, 15885.273025664454, 19578.96585213731, 0.0, 0.0, 0.0, -187500.02235174447, -187500.02235174447, 0.0, 0.4, -0.9500000000000001, -0.17, 192.0, 12.0, 128.0, 226.0, 80.0, 250.0, 176.0, 0.0, 0.0, 0.0, 1.677704197458627E9, 0.0, 2023-03-01 12:56:37.458
59.0, 15883.61899657476, 19584.263215573217, 0.0, 0.0, 0.0, -187500.02235174447, -187500.02235174447, 0.0, 0.4, -0.9500000000000001, -0.17, 192.0, 0.0, 0.0, 0.0, 0.0, 0.0, 0.0, 0.0, 0.0, 0.0, 1.677704197466665E9, 0.0, 2023-03-01 12:56:37.466
60.0, 15890.659796078182, 19592.8239336996, 0.0, 0.0, 0.0, -187500.02235174447, -187500.02235174447, 0.0, 0.4, -0.9500000000000001, -0.17, 192.0, 0.0, 0.0, 0.0, 0.0, 0.0, 0.0, 0.0, 0.0, 0.0, 1.677704197466689E9, 0.0, 2023-03-01 12:56:37.466
61.0, 15891.1515344562, 19594.0756313891, 0.0, 0.0, 0.0, -187500.02235174447, -187500.02235174447, 0.0, 0.4, -0.9500000000000001, -0.17, 192.0, 0.0, 0.0, 0.0, 0.0, 0.0, 0.0, 0.0, 0.0, 0.0, 1.677704197473754E9, 0.0, 2023-03-01 12:56:37.473
62.0, 15893.163191457177, 19590.49935227625, 0.0, 0.0, 0.0, -187500.02235174447, -187500.02235174447, 0.0, 0.4, -0.9500000000000001, -0.17, 192.0, 0.0, 0.0, 0.0, 0.0, 0.0, 0.0, 0.0, 0.0, 0.0, 1.677704197473765E9, 0.0, 2023-03-01 12:56:37.473
63.0, 15895.510124624983, 19586.945424907855, 0.0, 0.0, 0.0, -187500.02235174447, -187500.02235174447, 0.0, 0.4, -0.9500000000000001, -0.17, 192.0, 0.0, 0.0, 0.0, 0.0, 0.0, 0.0, 0.0, 0.0, 0.0, 1.677704197480861E9, 0.0, 2023-03-01 12:56:37.480
64.0, 15904.361415429285, 19601.20583787034, 0.0, 0.0, 0.0, -187500.02235174447, -187500.02235174447, 0.0, 0.4, -0.9500000000000001, -0.17, 192.0, 0.0, 0.0, 0.0, 0.0, 0.0, 0.0, 0.0, 0.0, 0.0, 1.67770419748839E9, 0.0, 2023-03-01 12:56:37.488
65.0, 15900.271046193964, 19602.055204159642, 0.0, 0.0, 0.0, -187500.02235174447, -187500.02235174447, 0.0, 0.4, -0.9500000000000001, -0.17, 192.0, 0.0, 0.0, 0.0, 0.0, 0.0, 0.0, 0.0, 0.0, 0.0, 1.677704197488409E9, 0.0, 2023-03-01 12:56:37.488
66.0, 15890.61509258927, 19583.68207021738, 0.0, 0.0, 0.0, -187500.02235174447, -187500.02235174447, 0.0, 0.4, -0.9500000000000001, -0.17, 192.0, 0.0, 0.0, 0.0, 0.0, 0.0, 0.0, 0.0, 0.0, 0.0, 1.677704197496311E9, 0.0, 2023-03-01 12:56:37.496
67.0, 15886.234150676031, 19577.468285258805, 0.0, 0.0, 0.0, -187500.02235174447, -187500.02235174447, 0.0, 0.4, -0.9500000000000001, -0.17, 192.0, 0.0, 0.0, 0.0, 0.0, 0.0, 0.0, 0.0, 0.0, 0.0, 1.677704197496328E9, 0.0, 2023-03-01 12:56:37.496
68.0, 15888.491676866017, 19580.038735871167, 0.0, 0.0, 0.0, -187500.02235174447, -187500.02235174447, 0.0, 0.4, -0.9500000000000001, -0.17, 192.0, 0.0, 0.0, 0.0, 0.0, 0.0, 0.0, 0.0, 0.0, 0.0, 1.67770419750356E9, 0.0, 2023-03-01 12:56:37.503
69.0, 15885.898874509201, 19573.176750323386, 0.0, 0.0, 0.0, -187500.02235174447, -187500.02235174447, 0.0, 0.428, -0.928, -0.16, 192.0, 13.0, 96.0, 227.0, 0.0, 251.0, 0.0, 0.0, 0.0, 0.0, 1.677704197503577E9, 0.0, 2023-03-01 12:56:37.503
70.0, 15885.831819275836, 19575.635442213472, 0.0, 0.0, 0.0, -187500.02235174447, -187500.02235174447, 0.0, 0.428, -0.928, -0.16, 192.0, 0.0, 0.0, 0.0, 0.0, 0.0, 0.0, 0.0, 0.0, 0.0, 1.677704197510856E9, 0.0, 2023-03-01 12:56:37.510
71.0, 15891.218589689564, 19579.770514937703, 0.0, 0.0, 0.0, -187500.02235174447, -187500.02235174447, 0.0, 0.428, -0.928, -0.16, 192.0, 0.0, 0.0, 0.0, 0.0, 0.0, 0.0, 0.0, 0.0, 0.0, 1.677704197510871E9, 0.0, 2023-03-01 12:56:37.510
72.0, 15887.86582802127, 19572.72971543428, 0.0, 0.0, 0.0, -187500.02235174447, -187500.02235174447, 0.0, 0.428, -0.928, -0.16, 192.0, 0.0, 0.0, 0.0, 0.0, 0.0, 0.0, 0.0, 0.0, 0.0, 1.677704197518898E9, 0.0, 2023-03-01 12:56:37.518
73.0, 15888.826953032847, 19569.175788065888, 0.0, 0.0, 0.0, -187464.43837457162, -187500.02235174447, 0.0, 0.428, -0.928, -0.16, 192.0, 0.0, 0.0, 0.0, 0.0, 0.0, 0.0, 0.0, 0.0, 0.0, 1.677704197518907E9, 0.0, 2023-03-01 12:56:37.518
74.0, 15889.296339666409, 19573.73554393477, 0.0, 0.0, 0.0, -186962.64171154998, -187500.02235174447, 0.0, 0.428, -0.928, -0.16, 192.0, 0.0, 0.0, 0.0, 0.0, 0.0, 0.0, 0.0, 0.0, 0.0, 1.677704197526968E9, 0.0, 2023-03-01 12:56:37.526
75.0, 15883.686051808127, 19575.613090469014, 0.0, 0.0, 0.0, -186369.38171021722, -187500.02235174447, 0.0, 0.428, -0.928, -0.16, 192.0, 0.0, 0.0, 0.0, 0.0, 0.0, 0.0, 0.0, 0.0, 0.0, 1.677704197526991E9, 0.0, 2023-03-01 12:56:37.526
76.0, 15887.977586743546, 19577.311823047618, 0.0, 0.0, 0.0, -185907.92994593742, -187500.02235174447, 0.0, 0.428, -0.928, -0.16, 192.0, 0.0, 0.0, 0.0, 0.0, 0.0, 0.0, 0.0, 0.0, 0.0, 1.677704197533424E9, 0.0, 2023-03-01 12:56:37.533
77.0, 15892.67145307916, 19579.189369581865, 0.0, 0.0, 0.0, -185800.1498341739, -187500.02235174447, 0.0, 0.428, -0.928, -0.16, 192.0, 0.0, 0.0, 0.0, 0.0, 0.0, 0.0, 0.0, 0.0, 0.0, 1.677704197533483E9, 0.0, 2023-03-01 12:56:37.533
78.0, 15883.216665174565, 19569.846340399545, 0.0, 0.0, 0.0, -185722.7904466141, -187500.02235174447, 0.0, 0.428, -0.928, -0.16, 192.0, 0.0, 0.0, 0.0, 0.0, 0.0, 0.0, 0.0, 0.0, 0.0, 1.677704197540562E9, 0.0, 2023-03-01 12:56:37.540
79.0, 15877.695784294105, 19565.06306708611, 0.0, 0.0, 0.0, -185546.3904793728, -187500.02235174447, 0.0, 0.41400000000000003, -0.91, -0.17, 192.0, 12.0, 240.0, 227.0, 144.0, 250.0, 176.0, 0.0, 0.0, 0.0, 1.677704197548586E9, 0.0, 2023-03-01 12:56:37.548
80.0, 15877.315804638363, 19565.800674653136, 0.0, 0.0, 0.0, -185315.9886975275, -187500.02235174447, 0.0, 0.41400000000000003, -0.91, -0.17, 192.0, 0.0, 0.0, 0.0, 0.0, 0.0, 0.0, 0.0, 0.0, 0.0, 1.677704197548601E9, 0.0, 2023-03-01 12:56:37.548
81.0, 15872.979566214033, 19563.319631018596, 0.0, 0.0, 0.0, -185035.2731389133, -187500.02235174447, 0.0, 0.41400000000000003, -0.91, -0.17, 192.0, 0.0, 0.0, 0.0, 0.0, 0.0, 0.0, 0.0, 0.0, 0.0, 1.677704197556633E9, 0.0, 2023-03-01 12:56:37.556
82.0, 15871.169074913154, 19564.101942074532, 0.0, 0.0, 0.0, -184772.863659008, -187500.02235174447, 0.0, 0.41400000000000003, -0.91, -0.17, 192.0, 0.0, 0.0, 0.0, 0.0, 0.0, 0.0, 0.0, 0.0, 0.0, 1.677704197556648E9, 0.0, 2023-03-01 12:56:37.556
83.0, 15878.969833728057, 19566.29241303115, 0.0, 0.0, 0.0, -184526.74860081062, -187500.02235174447, 0.0, 0.41400000000000003, -0.91, -0.17, 192.0, 0.0, 0.0, 0.0, 0.0, 0.0, 0.0, 0.0, 0.0, 0.0, 1.677704197563115E9, 0.0, 2023-03-01 12:56:37.563
84.0, 15882.389650629719, 19569.376953765983, 0.0, 0.0, 0.0, -184252.62680681073, -187500.02235174447, 0.0, 0.41400000000000003, -0.91, -0.17, 192.0, 0.0, 0.0, 0.0, 0.0, 0.0, 0.0, 0.0, 0.0, 0.0, 1.677704197563124E9, 0.0, 2023-03-01 12:56:37.563
85.0, 15883.216665174565, 19572.26032880072, 0.0, 0.0, 0.0, -183938.02600360228, -187500.02235174447, 0.0, 0.41400000000000003, -0.91, -0.17, 192.0, 0.0, 0.0, 0.0, 0.0, 0.0, 0.0, 0.0, 0.0, 0.0, 1.677704197571076E9, 0.0, 2023-03-01 12:56:37.571
86.0, 15876.622900560249, 19565.845378142047, 0.0, 0.0, 0.0, -183584.66727550834, -187500.02235174447, 0.0, 0.41400000000000003, -0.91, -0.17, 192.0, 0.0, 0.0, 0.0, 0.0, 0.0, 0.0, 0.0, 0.0, 0.0, 1.677704197571101E9, 0.0, 2023-03-01 12:56:37.571
87.0, 15877.159342427176, 19566.69474443135, 0.0, 0.0, 0.0, -183232.06850672586, -187500.02235174447, 0.0, 0.41400000000000003, -0.91, -0.17, 192.0, 0.0, 0.0, 0.0, 0.0, 0.0, 0.0, 0.0, 0.0, 0.0, 1.677704197580632E9, 0.0, 2023-03-01 12:56:37.580
88.0, 15876.555845326882, 19571.58977646706, 0.0, 0.0, 0.0, -182891.56203169373, -187500.02235174447, 0.0, 0.41400000000000003, -0.91, -0.17, 192.0, 0.0, 0.0, 0.0, 0.0, 0.0, 0.0, 0.0, 0.0, 0.0, 1.67770419758065E9, 0.0, 2023-03-01 12:56:37.580
89.0, 15875.684127293127, 19570.87452064449, 0.0, 0.0, 0.0, -182565.7406527687, -187500.02235174447, 0.0, 0.4, -0.922, -0.182, 192.0, 12.0, 128.0, 227.0, 48.0, 250.0, 80.0, 0.0, 0.0, 0.0, 1.677704197586955E9, 0.0, 2023-03-01 12:56:37.586
90.0, 15878.366336627763, 19568.97462236579, 0.0, 0.0, 0.0, -182191.57245058686, -187500.02235174447, 0.0, 0.4, -0.922, -0.182, 192.0, 0.0, 0.0, 0.0, 0.0, 0.0, 0.0, 0.0, 0.0, 0.0, 1.677704197586972E9, 0.0, 2023-03-01 12:56:37.586
91.0, 15872.040792946911, 19566.046543842145, 0.0, 0.0, 0.0, -181830.74823984483, -187500.02235174447, 0.0, 0.4, -0.922, -0.182, 192.0, 0.0, 0.0, 0.0, 0.0, 0.0, 0.0, 0.0, 0.0, 0.0, 1.677704197593705E9, 0.0, 2023-03-01 12:56:37.593
92.0, 15873.605415058782, 19567.454703742827, 0.0, 0.0, 0.0, -181514.13577963543, -187500.02235174447, 0.0, 0.4, -0.922, -0.182, 192.0, 0.0, 0.0, 0.0, 0.0, 0.0, 0.0, 0.0, 0.0, 0.0, 1.677704197593717E9, 0.0, 2023-03-01 12:56:37.593
93.0, 15879.014537216966, 19569.287546788164, 0.0, 0.0, 0.0, -181193.67881937968, -187500.02235174447, 0.0, 0.4, -0.922, -0.182, 192.0, 0.0, 0.0, 0.0, 0.0, 0.0, 0.0, 0.0, 0.0, 0.0, 1.677704197600737E9, 0.0, 2023-03-01 12:56:37.600
94.0, 15881.47322910705, 19571.03098285568, 0.0, 0.0, 0.0, -180848.52318150082, -187500.02235174447, 0.0, 0.4, -0.922, -0.182, 192.0, 0.0, 0.0, 0.0, 0.0, 0.0, 0.0, 0.0, 0.0, 0.0, 1.677704197608738E9, 0.0, 2023-03-01 12:56:37.608
95.0, 15868.933900467624, 19557.754046649225, 0.0, 0.0, 0.0, -180567.09236706406, -187500.02235174447, 0.0, 0.4, -0.922, -0.182, 192.0, 0.0, 0.0, 0.0, 0.0, 0.0, 0.0, 0.0, 0.0, 0.0, 1.677704197608749E9, 0.0, 2023-03-01 12:56:37.608
96.0, 15866.631670788727, 19555.697686159336, 0.0, 0.0, 0.0, -180279.82774732445, -187500.02235174447, 0.0, 0.4, -0.922, -0.182, 192.0, 0.0, 0.0, 0.0, 0.0, 0.0, 0.0, 0.0, 0.0, 0.0, 1.677704197615857E9, 0.0, 2023-03-01 12:56:37.615
97.0, 15869.626804545738, 19562.425561240383, 0.0, 0.0, 0.0, -179851.83654449423, -187500.02235174447, 0.0, 0.4, -0.922, -0.182, 192.0, 0.0, 0.0, 0.0, 0.0, 0.0, 0.0, 0.0, 0.0, 0.0, 1.677704197615877E9, 0.0, 2023-03-01 12:56:37.615
98.0, 15883.417830874663, 19577.44593351435, 0.0, 0.0, 0.0, -179409.2049490458, -187175.16209783102, 0.0, 0.4, -0.922, -0.182, 192.0, 0.0, 0.0, 0.0, 0.0, 0.0, 0.0, 0.0, 0.0, 0.0, 1.677704197623377E9, 0.0, 2023-03-01 12:56:37.623
99.0, 15873.694822036603, 19557.530529204672, 0.0, 0.0, 0.0, -179028.84531364983, -186489.70115062012, 0.0, 0.41200000000000003, -0.9420000000000001, -0.194, 192.0, 12.0, 224.0, 226.0, 144.0, 249.0, 240.0, 0.0, 0.0, 0.0, 1.6777041976234E9, 0.0, 2023-03-01 12:56:37.623
100.0, 15855.858129961269, 19545.706456387816, 0.0, 0.0, 0.0, -178644.32825378518, -185787.23052587875, 0.0, 0.41200000000000003, -0.9420000000000001, -0.194, 192.0, 0.0, 0.0, 0.0, 0.0, 0.0, 0.0, 0.0, 0.0, 0.0, 1.677704197631369E9, 0.0, 2023-03-01 12:56:37.631
101.0, 15865.804656243881, 19558.469302471793, 0.0, 0.0, 0.0, -178290.81306348005, -185079.86486910164, 0.0, 0.41200000000000003, -0.9420000000000001, -0.194, 192.0, 0.0, 0.0, 0.0, 0.0, 0.0, 0.0, 0.0, 0.0, 0.0, 1.677704197631385E9, 0.0, 2023-03-01 12:56:37.631
102.0, 15861.893100964202, 19554.289526258653, 0.0, 0.0, 0.0, -178089.55795640446, -184431.19489326418, 0.0, 0.41200000000000003, -0.9420000000000001, -0.194, 192.0, 0.0, 0.0, 0.0, 0.0, 0.0, 0.0, 0.0, 0.0, 0.0, 1.677704197639441E9, 0.0, 2023-03-01 12:56:37.639
103.0, 15861.490769564007, 19551.763779135203, 0.0, 0.0, 0.0, -177953.5922948828, -183828.16717960444, 0.0, 0.41200000000000003, -0.9420000000000001, -0.194, 192.0, 0.0, 0.0, 0.0, 0.0, 0.0, 0.0, 0.0, 0.0, 0.0, 1.677704197639452E9, 0.0, 2023-03-01 12:56:37.639
104.0, 15864.038868431911, 19555.83179662607, 0.0, 0.0, 0.0, -177794.35846738322, -183253.88380931425, 0.0, 0.41200000000000003, -0.9420000000000001, -0.194, 192.0, 0.0, 0.0, 0.0, 0.0, 0.0, 0.0, 0.0, 0.0, 0.0, 1.677704197646014E9, 0.0, 2023-03-01 12:56:37.646
105.0, 15864.888234721213, 19560.436255983863, 0.0, 0.0, 0.0, -177742.949455136, -182755.59637017208, 0.0, 0.41200000000000003, -0.9420000000000001, -0.194, 192.0, 0.0, 0.0, 0.0, 0.0, 0.0, 0.0, 0.0, 0.0, 0.0, 1.677704197646025E9, 0.0, 2023-03-01 12:56:37.646
106.0, 15863.077743420334, 19562.939651362856, 0.0, 0.0, 0.0, -177768.69866474852, -182327.38164989732, 0.0, 0.41200000000000003, -0.9420000000000001, -0.194, 192.0, 0.0, 0.0, 0.0, 0.0, 0.0, 0.0, 0.0, 0.0, 0.0, 1.677704197654104E9, 0.0, 2023-03-01 12:56:37.654
107.0, 15868.352755111786, 19562.425561240383, 0.0, 0.0, 0.0, -177831.5741219013, -181963.204677487, 0.0, 0.41200000000000003, -0.9420000000000001, -0.194, 192.0, 0.0, 0.0, 0.0, 0.0, 0.0, 0.0, 0.0, 0.0, 0.0, 1.677704197654113E9, 0.0, 2023-03-01 12:56:37.654
108.0, 15868.576272556338, 19565.0183635972, 0.0, 0.0, 0.0, -177952.0053210265, -181681.7291595613, 0.0, 0.41200000000000003, -0.9420000000000001, -0.194, 192.0, 0.0, 0.0, 0.0, 0.0, 0.0, 0.0, 0.0, 0.0, 0.0, 1.677704197661075E9, 0.0, 2023-03-01 12:56:37.661
109.0, 15866.631670788727, 19564.481921730272, 0.0, 0.0, 0.0, -178158.98247468265, -181504.18925335282, 0.0, 0.41200000000000003, -0.9480000000000001, -0.20800000000000002, 192.0, 12.0, 224.0, 226.0, 96.0, 249.0, 128.0, 0.0, 0.0, 0.0, 1.677704197668166E9, 0.0, 2023-03-01 12:56:37.668
110.0, 15864.441199832107, 19557.39641873794, 0.0, 0.0, 0.0, -178291.34950534697, -181367.97772264216, 0.0, 0.41200000000000003, -0.9480000000000001, -0.20800000000000002, 192.0, 0.0, 0.0, 0.0, 0.0, 0.0, 0.0, 0.0, 0.0, 0.0, 1.677704197668201E9, 0.0, 2023-03-01 12:56:37.668
111.0, 15863.345964353797, 19555.116540803498, 0.0, 0.0, 0.0, -178332.85669480046, -181357.4053475148, 0.0, 0.41200000000000003, -0.9480000000000001, -0.20800000000000002, 192.0, 0.0, 0.0, 0.0, 0.0, 0.0, 0.0, 0.0, 0.0, 0.0, 1.67770419767567E9, 0.0, 2023-03-01 12:56:37.675
112.0, 15865.201159143588, 19555.675334414882, 0.0, 0.0, 0.0, -178227.08824003796, -181444.35363344595, 0.0, 0.41200000000000003, -0.9480000000000001, -0.20800000000000002, 192.0, 0.0, 0.0, 0.0, 0.0, 0.0, 0.0, 0.0, 0.0, 0.0, 1.677704197675689E9, 0.0, 2023-03-01 12:56:37.675
113.0, 15868.732734767525, 19559.139854805453, 0.0, 0.0, 0.0, -177952.6535216157, -181519.20962562677, 0.0, 0.41200000000000003, -0.9480000000000001, -0.20800000000000002, 192.0, 0.0, 0.0, 0.0, 0.0, 0.0, 0.0, 0.0, 0.0, 0.0, 1.677704197683745E9, 0.0, 2023-03-01 12:56:37.683
114.0, 15873.158380169676, 19566.046543842145, 0.0, 0.0, 0.0, -177528.01508045377, -181573.32319895306, 0.0, 0.41200000000000003, -0.9480000000000001, -0.20800000000000002, 192.0, 0.0, 0.0, 0.0, 0.0, 0.0, 0.0, 0.0, 0.0, 0.0, 1.677704197683758E9, 0.0, 2023-03-01 12:56:37.683
115.0, 15877.516970338462, 19569.868692144002, 0.0, 0.0, 0.0, -177106.37177304886, -181661.65729304045, 0.0, 0.41200000000000003, -0.9480000000000001, -0.20800000000000002, 192.0, 0.0, 0.0, 0.0, 0.0, 0.0, 0.0, 0.0, 0.0, 0.0, 1.677704197691743E9, 0.0, 2023-03-01 12:56:37.691
116.0, 15868.643327789705, 19564.370163007996, 0.0, 0.0, 0.0, -176679.22993650794, -181792.43734984845, 0.0, 0.41200000000000003, -0.9480000000000001, -0.20800000000000002, 192.0, 0.0, 0.0, 0.0, 0.0, 0.0, 0.0, 0.0, 0.0, 0.0, 1.677704197691755E9, 0.0, 2023-03-01 12:56:37.691
117.0, 15865.558787054872, 19560.436255983863, 0.0, 0.0, 0.0, -176284.22990849375, -181974.13468052563, 0.0, 0.41200000000000003, -0.9480000000000001, -0.20800000000000002, 192.0, 0.0, 0.0, 0.0, 0.0, 0.0, 0.0, 0.0, 0.0, 0.0, 1.6777041976983E9, 0.0, 2023-03-01 12:56:37.698
118.0, 15873.627766803238, 19567.074724087088, 0.0, 0.0, 0.0, -175966.05282617247, -182217.2993084549, 0.0, 0.41200000000000003, -0.9480000000000001, -0.20800000000000002, 192.0, 0.0, 0.0, 0.0, 0.0, 0.0, 0.0, 0.0, 0.0, 0.0, 1.677704197698308E9, 0.0, 2023-03-01 12:56:37.698
119.0, 15873.42660110314, 19568.68404968787, 0.0, 0.0, 0.0, -175747.96685552204, -182537.82332394403, 0.0, 0.41600000000000004, -0.9560000000000001, -0.216, 192.0, 13.0, 0.0, 226.0, 32.0, 249.0, 64.0, 0.0, 0.0, 0.0, 1.677704197706303E9, 0.0, 2023-03-01 12:56:37.706
120.0, 15869.068010934356, 19565.44304674185, 0.0, 0.0, 0.0, -175528.45037322646, -182877.63689489805, 0.0, 0.41600000000000004, -0.9560000000000001, -0.216, 192.0, 0.0, 0.0, 0.0, 0.0, 0.0, 0.0, 0.0, 0.0, 0.0, 1.677704197706327E9, 0.0, 2023-03-01 12:56:37.706
121.0, 15867.481037078029, 19561.755008906726, 0.0, 0.0, 0.0, -175368.7024556044, -183280.39297823823, 0.0, 0.41600000000000004, -0.9560000000000001, -0.216, 192.0, 0.0, 0.0, 0.0, 0.0, 0.0, 0.0, 0.0, 0.0, 0.0, 1.677704197714363E9, 0.0, 2023-03-01 12:56:37.714
122.0, 15872.42077260265, 19561.218567039796, 0.0, 0.0, 0.0, -175325.87651322802, -183749.64550133294, 0.0, 0.41600000000000004, -0.9560000000000001, -0.216, 192.0, 0.0, 0.0, 0.0, 0.0, 0.0, 0.0, 0.0, 0.0, 0.0, 1.677704197714378E9, 0.0, 2023-03-01 12:56:37.714
123.0, 15878.925130239146, 19569.131084576977, 0.0, 0.0, 0.0, -175334.14665867647, -184246.12244917423, 0.0, 0.41600000000000004, -0.9560000000000001, -0.216, 192.0, 0.0, 0.0, 0.0, 0.0, 0.0, 0.0, 0.0, 0.0, 0.0, 1.677704197721572E9, 0.0, 2023-03-01 12:56:37.721
124.0, 15870.319708623852, 19564.705439174824, 0.0, 0.0, 0.0, -175374.58096439613, -184794.9695342743, 0.0, 0.41600000000000004, -0.9560000000000001, -0.216, 192.0, 0.0, 0.0, 0.0, 0.0, 0.0, 0.0, 0.0, 0.0, 0.0, 1.6777041977216E9, 0.0, 2023-03-01 12:56:37.721
125.0, 15863.211853887065, 19556.88232861547, 0.0, 0.0, 0.0, -175411.43899100294, -185389.39182631872, 0.0, 0.41600000000000004, -0.9560000000000001, -0.216, 192.0, 0.0, 0.0, 0.0, 0.0, 0.0, 0.0, 0.0, 0.0, 0.0, 1.677704197727962E9, 0.0, 2023-03-01 12:56:37.727
126.0, 15858.585042784816, 19556.077665815075, 0.0, 0.0, 0.0, -175501.7176868579, -186029.14345611853, 0.0, 0.41600000000000004, -0.9560000000000001, -0.216, 192.0, 0.0, 0.0, 0.0, 0.0, 0.0, 0.0, 0.0, 0.0, 0.0, 1.677704197736624E9, 0.0, 2023-03-01 12:56:37.736
127.0, 15857.959193940067, 19554.513043703206, 0.0, 0.0, 0.0, -175615.3986591576, -186701.95331596772, 0.0, 0.41600000000000004, -0.9560000000000001, -0.216, 192.0, 0.0, 0.0, 0.0, 0.0, 0.0, 0.0, 0.0, 0.0, 0.0, 1.677704197736636E9, 0.0, 2023-03-01 12:56:37.736
128.0, 15864.955289954578, 19558.53635770516, 0.0, 0.0, 0.0, -175708.8736544697, -187366.224809435, 0.0, 0.41600000000000004, -0.9560000000000001, -0.216, 192.0, 0.0, 0.0, 0.0, 0.0, 0.0, 0.0, 0.0, 0.0, 0.0, 1.67770419774396E9, 0.0, 2023-03-01 12:56:37.743
129.0, 15863.792999242904, 19557.73169490477, 0.0, 0.0, 0.0, -175849.57788581584, -187500.02235174447, 0.0, 0.41600000000000004, -0.9500000000000001, -0.222, 192.0, 13.0, 0.0, 226.0, 80.0, 249.0, 16.0, 0.0, 0.0, 0.0, 1.677704197743976E9, 0.0, 2023-03-01 12:56:37.743
130.0, 15862.273080619942, 19556.927032104377, 0.0, 0.0, 0.0, -176021.41809718826, -187500.02235174447, 0.0, 0.41600000000000004, -0.9500000000000001, -0.222, 192.0, 0.0, 0.0, 0.0, 0.0, 0.0, 0.0, 0.0, 0.0, 0.0, 1.677704197751108E9, 0.0, 2023-03-01 12:56:37.751
131.0, 15864.105923665276, 19559.810407139114, 0.0, 0.0, 0.0, -176124.5266943606, -187500.02235174447, 0.0, 0.41600000000000004, -0.9500000000000001, -0.222, 192.0, 0.0, 0.0, 0.0, 0.0, 0.0, 0.0, 0.0, 0.0, 0.0, 1.677704197751126E9, 0.0, 2023-03-01 12:56:37.751
132.0, 15864.530606809927, 19559.855110628025, 0.0, 0.0, 0.0, -176174.70636066276, -187500.02235174447, 0.0, 0.41600000000000004, -0.9500000000000001, -0.222, 192.0, 0.0, 0.0, 0.0, 0.0, 0.0, 0.0, 0.0, 0.0, 0.0, 1.677704197758593E9, 0.0, 2023-03-01 12:56:37.758
133.0, 15861.311955608364, 19562.492616473748, 0.0, 0.0, 0.0, -176255.9996552467, -187500.02235174447, 0.0, 0.41600000000000004, -0.9500000000000001, -0.222, 192.0, 0.0, 0.0, 0.0, 0.0, 0.0, 0.0, 0.0, 0.0, 0.0, 1.67770419775861E9, 0.0, 2023-03-01 12:56:37.758
134.0, 15862.608356786772, 19566.0688955866, 0.0, 0.0, 0.0, -176383.89633701998, -187500.02235174447, 0.0, 0.41600000000000004, -0.9500000000000001, -0.222, 192.0, 0.0, 0.0, 0.0, 0.0, 0.0, 0.0, 0.0, 0.0, 0.0, 1.677704197766651E9, 0.0, 2023-03-01 12:56:37.766
135.0, 15864.217682387554, 19564.839549641558, 0.0, 0.0, 0.0, -176498.69489654244, -187500.02235174447, 0.0, 0.41600000000000004, -0.9500000000000001, -0.222, 192.0, 0.0, 0.0, 0.0, 0.0, 0.0, 0.0, 0.0, 0.0, 0.0, 1.677704197766666E9, 0.0, 2023-03-01 12:56:37.766
136.0, 15860.574348041338, 19561.73265716227, 0.0, 0.0, 0.0, -176629.76552602835, -187500.02235174447, 0.0, 0.41600000000000004, -0.9500000000000001, -0.222, 192.0, 0.0, 0.0, 0.0, 0.0, 0.0, 0.0, 0.0, 0.0, 0.0, 1.677704197774681E9, 0.0, 2023-03-01 12:56:37.774
137.0, 15860.99903118599, 19561.665601928904, 0.0, 0.0, 0.0, -176833.1887523161, -187500.02235174447, 0.0, 0.41600000000000004, -0.9500000000000001, -0.222, 192.0, 0.0, 0.0, 0.0, 0.0, 0.0, 0.0, 0.0, 0.0, 0.0, 1.677704197774696E9, 0.0, 2023-03-01 12:56:37.774
138.0, 15861.33430735282, 19557.508177460215, 0.0, 0.0, 0.0, -177065.17750801772, -187500.02235174447, 0.0, 0.41600000000000004, -0.9500000000000001, -0.222, 192.0, 0.0, 0.0, 0.0, 0.0, 0.0, 0.0, 0.0, 0.0, 0.0, 1.677704197781168E9, 0.0, 2023-03-01 12:56:37.781
139.0, 15861.647231775194, 19555.518872203695, 0.0, 0.0, 0.0, -177245.80195496106, -187500.02235174447, 0.0, 0.41600000000000004, -0.9500000000000001, -0.222, 192.0, 0.0, 0.0, 0.0, 0.0, 0.0, 0.0, 0.0, 0.0, 0.0, 1.677704197781176E9, 0.0, 2023-03-01 12:56:37.781
140.0, 15864.396496343195, 19562.045581584644, 0.0, 0.0, 0.0, -177438.7869165882, -187500.02235174447, 0.0, 0.42, -0.9460000000000001, -0.224, 192.0, 13.0, 32.0, 226.0, 112.0, 249.0, 0.0, 0.0, 0.0, 0.0, 1.677704197788119E9, 0.0, 2023-03-01 12:56:37.788
141.0, 15861.580176541827, 19560.92799436188, 0.0, 0.0, 0.0, -177694.55792839028, -187500.02235174447, 0.0, 0.42, -0.9460000000000001, -0.224, 192.0, 0.0, 0.0, 0.0, 0.0, 0.0, 0.0, 0.0, 0.0, 0.0, 1.677704197796192E9, 0.0, 2023-03-01 12:56:37.796
142.0, 15866.117580666254, 19563.38668625196, 0.0, 0.0, 0.0, -177976.0557980604, -187500.02235174447, 0.0, 0.42, -0.9460000000000001, -0.224, 192.0, 0.0, 0.0, 0.0, 0.0, 0.0, 0.0, 0.0, 0.0, 0.0, 1.677704197796257E9, 0.0, 2023-03-01 12:56:37.796
143.0, 15865.625842288238, 19565.040715341656, 0.0, 0.0, 0.0, -178268.50602251364, -187500.02235174447, 0.0, 0.42, -0.9460000000000001, -0.224, 192.0, 0.0, 0.0, 0.0, 0.0, 0.0, 0.0, 0.0, 0.0, 0.0, 1.677704197804293E9, 0.0, 2023-03-01 12:56:37.804
144.0, 15864.776475998937, 19563.364334507507, 0.0, 0.0, 0.0, -178528.6356244845, -187500.02235174447, 0.0, 0.42, -0.9460000000000001, -0.224, 192.0, 0.0, 0.0, 0.0, 0.0, 0.0, 0.0, 0.0, 0.0, 0.0, 1.677704197804314E9, 0.0, 2023-03-01 12:56:37.804
145.0, 15870.319708623852, 19573.892006145958, 0.0, 0.0, 0.0, -178768.73806342343, -187500.02235174447, 0.0, 0.42, -0.9460000000000001, -0.224, 192.0, 0.0, 0.0, 0.0, 0.0, 0.0, 0.0, 0.0, 0.0, 0.0, 1.677704197810932E9, 0.0, 2023-03-01 12:56:37.810
146.0, 15869.090362678811, 19574.853131157535, 0.0, 0.0, 0.0, -179014.8531216208, -187500.02235174447, 0.0, 0.42, -0.9460000000000001, -0.224, 192.0, 0.0, 0.0, 0.0, 0.0, 0.0, 0.0, 0.0, 0.0, 0.0, 1.677704197810946E9, 0.0, 2023-03-01 12:56:37.810
147.0, 15868.598624300794, 19570.40513401093, 0.0, 0.0, 0.0, -179233.11790622686, -187500.02235174447, 0.0, 0.42, -0.9460000000000001, -0.224, 192.0, 0.0, 0.0, 0.0, 0.0, 0.0, 0.0, 0.0, 0.0, 0.0, 1.677704197818842E9, 0.0, 2023-03-01 12:56:37.818
148.0, 15866.430505088629, 19567.58881420956, 0.0, 0.0, 0.0, -179454.93661820135, -187500.02235174447, 0.0, 0.42, -0.9460000000000001, -0.224, 192.0, 0.0, 0.0, 0.0, 0.0, 0.0, 0.0, 0.0, 0.0, 0.0, 1.677704197818856E9, 0.0, 2023-03-01 12:56:37.818
149.0, 15866.0952289218, 19572.30503228963, 0.0, 0.0, 0.0, -179695.8213681962, -187500.02235174447, 0.0, 0.42, -0.9460000000000001, -0.224, 192.0, 0.0, 0.0, 0.0, 0.0, 0.0, 0.0, 0.0, 0.0, 0.0, 1.677704197826863E9, 0.0, 2023-03-01 12:56:37.826
150.0, 15870.431467346129, 19581.335137049573, 0.0, 0.0, 0.0, -179971.3736738412, -187500.02235174447, 0.0, 0.42, -0.9540000000000001, -0.22, 192.0, 13.0, 32.0, 226.0, 48.0, 249.0, 32.0, 0.0, 0.0, 0.0, 1.677704197826873E9, 0.0, 2023-03-01 12:56:37.826
151.0, 15874.052449947889, 19579.122314348497, 0.0, 0.0, 0.0, -180287.96378230618, -187500.02235174447, 0.0, 0.42, -0.9540000000000001, -0.22, 192.0, 0.0, 0.0, 0.0, 0.0, 0.0, 0.0, 0.0, 0.0, 0.0, 1.677704197834939E9, 0.0, 2023-03-01 12:56:37.834
152.0, 15867.10105742229, 19571.500369489237, 0.0, 0.0, 0.0, -180553.97189306878, -187500.02235174447, 0.0, 0.42, -0.9540000000000001, -0.22, 192.0, 0.0, 0.0, 0.0, 0.0, 0.0, 0.0, 0.0, 0.0, 0.0, 1.677704197834961E9, 0.0, 2023-03-01 12:56:37.834
153.0, 15864.776475998937, 19568.371125265494, 0.0, 0.0, 0.0, -180833.61456794915, -187500.02235174447, 0.0, 0.42, -0.9540000000000001, -0.22, 192.0, 0.0, 0.0, 0.0, 0.0, 0.0, 0.0, 0.0, 0.0, 0.0, 1.677704197841517E9, 0.0, 2023-03-01 12:56:37.841
154.0, 15855.634612516717, 19561.710305417815, 0.0, 0.0, 0.0, -181151.03169095895, -187500.02235174447, 0.0, 0.42, -0.9540000000000001, -0.22, 192.0, 0.0, 0.0, 0.0, 0.0, 0.0, 0.0, 0.0, 0.0, 0.0, 1.67770419784154E9, 0.0, 2023-03-01 12:56:37.841
155.0, 15862.429542831129, 19566.9182618759, 0.0, 0.0, 0.0, -181495.06974161504, -187500.02235174447, 0.0, 0.42, -0.9540000000000001, -0.22, 192.0, 0.0, 0.0, 0.0, 0.0, 0.0, 0.0, 0.0, 0.0, 0.0, 1.677704197848528E9, 0.0, 2023-03-01 12:56:37.848
156.0, 15856.461627061562, 19564.101942074532, 0.0, 0.0, 0.0, -181819.50531238382, -187500.02235174447, 0.0, 0.42, -0.9540000000000001, -0.22, 192.0, 0.0, 0.0, 0.0, 0.0, 0.0, 0.0, 0.0, 0.0, 0.0, 1.677704197856616E9, 0.0, 2023-03-01 12:56:37.856
157.0, 15862.206025386577, 19567.030020598177, 0.0, 0.0, 0.0, -182099.70678087554, -187500.02235174447, 0.0, 0.42, -0.9540000000000001, -0.22, 192.0, 0.0, 0.0, 0.0, 0.0, 0.0, 0.0, 0.0, 0.0, 0.0, 1.677704197856633E9, 0.0, 2023-03-01 12:56:37.856
158.0, 15863.435371331618, 19569.041677599154, 0.0, 0.0, 0.0, -182432.27838662607, -187500.02235174447, 0.0, 0.42, -0.9540000000000001, -0.22, 192.0, 0.0, 0.0, 0.0, 0.0, 0.0, 0.0, 0.0, 0.0, 0.0, 1.67770419786531E9, 0.0, 2023-03-01 12:56:37.865
159.0, 15863.211853887065, 19572.30503228963, 0.0, 0.0, 0.0, -182756.17751552793, -187500.02235174447, 0.0, 0.42, -0.9540000000000001, -0.22, 192.0, 0.0, 0.0, 0.0, 0.0, 0.0, 0.0, 0.0, 0.0, 0.0, 1.67770419786537E9, 0.0, 2023-03-01 12:56:37.865
160.0, 15869.626804545738, 19570.315727033107, 0.0, 0.0, 0.0, -183035.61902470817, -187500.02235174447, 0.0, 0.41600000000000004, -0.9500000000000001, -0.22, 192.0, 13.0, 0.0, 226.0, 80.0, 249.0, 32.0, 0.0, 0.0, 0.0, 1.677704197871542E9, 0.0, 2023-03-01 12:56:37.871
161.0, 15864.463551576562, 19563.118465318497, 0.0, 0.0, 0.0, -183333.79129574198, -187500.02235174447, 0.0, 0.41600000000000004, -0.9500000000000001, -0.22, 192.0, 0.0, 0.0, 0.0, 0.0, 0.0, 0.0, 0.0, 0.0, 0.0, 1.677704197871554E9, 0.0, 2023-03-01 12:56:37.871
162.0, 15864.217682387554, 19567.275889787186, 0.0, 0.0, 0.0, -183627.71673532925, -187500.02235174447, 0.0, 0.41600000000000004, -0.9500000000000001, -0.22, 192.0, 0.0, 0.0, 0.0, 0.0, 0.0, 0.0, 0.0, 0.0, 0.0, 1.677704197879152E9, 0.0, 2023-03-01 12:56:37.879
163.0, 15861.222548630543, 19569.265195043707, 0.0, 0.0, 0.0, -183944.35154728312, -187500.02235174447, 0.0, 0.41600000000000004, -0.9500000000000001, -0.22, 192.0, 0.0, 0.0, 0.0, 0.0, 0.0, 0.0, 0.0, 0.0, 0.0, 1.677704197879171E9, 0.0, 2023-03-01 12:56:37.879
164.0, 15857.489807306507, 19567.34294502055, 0.0, 0.0, 0.0, -184218.40628604966, -187500.02235174447, 0.0, 0.41600000000000004, -0.9500000000000001, -0.22, 192.0, 0.0, 0.0, 0.0, 0.0, 0.0, 0.0, 0.0, 0.0, 0.0, 1.677704197886254E9, 0.0, 2023-03-01 12:56:37.886
165.0, 15862.295432364397, 19566.53828222016, 0.0, 0.0, 0.0, -184457.32408253243, -187500.02235174447, 0.0, 0.41600000000000004, -0.9500000000000001, -0.22, 192.0, 0.0, 0.0, 0.0, 0.0, 0.0, 0.0, 0.0, 0.0, 0.0, 1.677704197886272E9, 0.0, 2023-03-01 12:56:37.886
166.0, 15870.431467346129, 19575.478980002285, 0.0, 0.0, 0.0, -184697.47122496026, -187500.02235174447, 0.0, 0.41600000000000004, -0.9500000000000001, -0.22, 192.0, 0.0, 0.0, 0.0, 0.0, 0.0, 0.0, 0.0, 0.0, 0.0, 1.677704197893791E9, 0.0, 2023-03-01 12:56:37.893
167.0, 15870.990260957511, 19573.69084044586, 0.0, 0.0, 0.0, -184943.56393141317, -187500.02235174447, 0.0, 0.41600000000000004, -0.9500000000000001, -0.22, 192.0, 0.0, 0.0, 0.0, 0.0, 0.0, 0.0, 0.0, 0.0, 0.0, 1.677704197893808E9, 0.0, 2023-03-01 12:56:37.893
168.0, 15873.337194125319, 19572.34973577854, 0.0, 0.0, 0.0, -185181.94528602902, -187500.02235174447, 0.0, 0.41600000000000004, -0.9500000000000001, -0.22, 192.0, 0.0, 0.0, 0.0, 0.0, 0.0, 0.0, 0.0, 0.0, 0.0, 1.677704197901894E9, 0.0, 2023-03-01 12:56:37.901
169.0, 15870.18559815712, 19571.58977646706, 0.0, 0.0, 0.0, -185410.2236521511, -187500.02235174447, 0.0, 0.41600000000000004, -0.9500000000000001, -0.22, 192.0, 0.0, 0.0, 0.0, 0.0, 0.0, 0.0, 0.0, 0.0, 0.0, 1.677704197901909E9, 0.0, 2023-03-01 12:56:37.901
170.0, 15871.884330735724, 19572.327384034084, 0.0, 0.0, 0.0, -185649.2085038672, -187500.02235174447, 0.0, 0.402, -0.96, -0.22, 192.0, 12.0, 144.0, 226.0, 0.0, 249.0, 32.0, 0.0, 0.0, 0.0, 1.67770419790893E9, 0.0, 2023-03-01 12:56:37.908
171.0, 15866.788132999915, 19572.550901478637, 0.0, 0.0, 0.0, -185864.54520994966, -187500.02235174447, 0.0, 0.402, -0.96, -0.22, 192.0, 0.0, 0.0, 0.0, 0.0, 0.0, 0.0, 0.0, 0.0, 0.0, 1.677704197915911E9, 0.0, 2023-03-01 12:56:37.915
172.0, 15859.859092218769, 19569.53341597717, 0.0, 0.0, 0.0, -186060.4582501004, -187500.02235174447, 0.0, 0.402, -0.96, -0.22, 192.0, 0.0, 0.0, 0.0, 0.0, 0.0, 0.0, 0.0, 0.0, 0.0, 1.677704197915924E9, 0.0, 2023-03-01 12:56:37.915
173.0, 15862.764818997959, 19575.68014570238, 0.0, 0.0, 0.0, -186229.3033277158, -187500.02235174447, 0.0, 0.402, -0.96, -0.22, 192.0, 0.0, 0.0, 0.0, 0.0, 0.0, 0.0, 0.0, 0.0, 0.0, 1.677704197923386E9, 0.0, 2023-03-01 12:56:37.923
174.0, 15871.23613014652, 19583.324442306097, 0.0, 0.0, 0.0, -186426.04338241142, -187500.02235174447, 0.0, 0.402, -0.96, -0.22, 192.0, 0.0, 0.0, 0.0, 0.0, 0.0, 0.0, 0.0, 0.0, 0.0, 1.677704197923414E9, 0.0, 2023-03-01 12:56:37.923
175.0, 15873.337194125319, 19574.987241624265, 0.0, 0.0, 0.0, -186672.51606852008, -187500.02235174447, 0.0, 0.402, -0.96, -0.22, 192.0, 0.0, 0.0, 0.0, 0.0, 0.0, 0.0, 0.0, 0.0, 0.0, 1.677704197931449E9, 0.0, 2023-03-01 12:56:37.931
176.0, 15869.939728968113, 19563.118465318497, 0.0, 0.0, 0.0, -186911.0762370916, -187500.02235174447, 0.0, 0.402, -0.96, -0.22, 192.0, 0.0, 0.0, 0.0, 0.0, 0.0, 0.0, 0.0, 0.0, 0.0, 1.677704197931465E9, 0.0, 2023-03-01 12:56:37.931
177.0, 15868.24099638951, 19560.413904239405, 0.0, 0.0, 0.0, -187142.86382709313, -187500.02235174447, 0.0, 0.402, -0.96, -0.22, 192.0, 0.0, 0.0, 0.0, 0.0, 0.0, 0.0, 0.0, 0.0, 0.0, 1.677704197939403E9, 0.0, 2023-03-01 12:56:37.939
178.0, 15862.206025386577, 19565.152474063932, 0.0, 0.0, 0.0, -187394.29860047088, -187500.02235174447, 0.0, 0.402, -0.96, -0.22, 192.0, 0.0, 0.0, 0.0, 0.0, 0.0, 0.0, 0.0, 0.0, 0.0, 1.677704197939423E9, 0.0, 2023-03-01 12:56:37.939
179.0, 15865.804656243881, 19571.81329391161, 0.0, 0.0, 0.0, -187500.02235174447, -187500.02235174447, 0.0, 0.402, -0.96, -0.22, 192.0, 0.0, 0.0, 0.0, 0.0, 0.0, 0.0, 0.0, 0.0, 0.0, 1.677704197946033E9, 0.0, 2023-03-01 12:56:37.946
180.0, 15865.514083565962, 19572.282680545173, 0.0, 0.0, 0.0, -187500.02235174447, -187500.02235174447, 0.0, 0.392, -0.962, -0.214, 192.0, 12.0, 64.0, 225.0, 240.0, 249.0, 80.0, 0.0, 0.0, 0.0, 1.677704197946044E9, 0.0, 2023-03-01 12:56:37.946
181.0, 15856.61808927275, 19565.778322908678, 0.0, 0.0, 0.0, -187500.02235174447, -187500.02235174447, 0.0, 0.392, -0.962, -0.214, 192.0, 0.0, 0.0, 0.0, 0.0, 0.0, 0.0, 0.0, 0.0, 0.0, 1.677704197954061E9, 0.0, 2023-03-01 12:56:37.954
182.0, 15852.818292715347, 19556.949383848834, 0.0, 0.0, 0.0, -187500.02235174447, -187500.02235174447, 0.0, 0.392, -0.962, -0.214, 192.0, 0.0, 0.0, 0.0, 0.0, 0.0, 0.0, 0.0, 0.0, 0.0, 1.677704197954077E9, 0.0, 2023-03-01 12:56:37.954
183.0, 15861.222548630543, 19565.510101975215, 0.0, 0.0, 0.0, -187500.02235174447, -187500.02235174447, 0.0, 0.392, -0.962, -0.214, 192.0, 0.0, 0.0, 0.0, 0.0, 0.0, 0.0, 0.0, 0.0, 0.0, 1.677704197962047E9, 0.0, 2023-03-01 12:56:37.962
184.0, 15863.390667842707, 19568.706401432326, 0.0, 0.0, 0.0, -187500.02235174447, -187500.02235174447, 0.0, 0.392, -0.962, -0.214, 192.0, 0.0, 0.0, 0.0, 0.0, 0.0, 0.0, 0.0, 0.0, 0.0, 1.677704197962059E9, 0.0, 2023-03-01 12:56:37.962
185.0, 15857.959193940067, 19570.494540988748, 0.0, 0.0, 0.0, -187500.02235174447, -187500.02235174447, 0.0, 0.392, -0.962, -0.214, 192.0, 0.0, 0.0, 0.0, 0.0, 0.0, 0.0, 0.0, 0.0, 0.0, 1.67770419796926E9, 0.0, 2023-03-01 12:56:37.969
186.0, 15862.541301553405, 19571.612128211516, 0.0, 0.0, 0.0, -187500.02235174447, -187500.02235174447, 0.0, 0.392, -0.962, -0.214, 192.0, 0.0, 0.0, 0.0, 0.0, 0.0, 0.0, 0.0, 0.0, 0.0, 1.677704197969277E9, 0.0, 2023-03-01 12:56:37.969
187.0, 15863.927109709635, 19579.099962604043, 0.0, 0.0, 0.0, -187500.02235174447, -187500.02235174447, 0.0, 0.392, -0.962, -0.214, 192.0, 0.0, 0.0, 0.0, 0.0, 0.0, 0.0, 0.0, 0.0, 0.0, 1.67770419797567E9, 0.0, 2023-03-01 12:56:37.975
188.0, 15858.339173595808, 19576.931843391878, 0.0, 0.0, 0.0, -187500.02235174447, -187500.02235174447, 0.0, 0.392, -0.962, -0.214, 192.0, 0.0, 0.0, 0.0, 0.0, 0.0, 0.0, 0.0, 0.0, 0.0, 1.677704197985151E9, 0.0, 2023-03-01 12:56:37.985
189.0, 15854.069990404843, 19569.913395632913, 0.0, 0.0, 0.0, -187500.02235174447, -187500.02235174447, 0.0, 0.392, -0.962, -0.214, 192.0, 0.0, 0.0, 0.0, 0.0, 0.0, 0.0, 0.0, 0.0, 0.0, 1.677704197985171E9, 0.0, 2023-03-01 12:56:37.985
190.0, 15853.555900282372, 19566.582985709072, 0.0, 0.0, 0.0, -187500.02235174447, -187500.02235174447, 0.0, 0.386, -0.9480000000000001, -0.21, 192.0, 12.0, 16.0, 226.0, 96.0, 249.0, 112.0, 0.0, 0.0, 0.0, 1.677704197991671E9, 0.0, 2023-03-01 12:56:37.991
191.0, 15862.161321897665, 19572.34973577854, 0.0, 0.0, 0.0, -187500.02235174447, -187500.02235174447, 0.0, 0.386, -0.9480000000000001, -0.21, 192.0, 0.0, 0.0, 0.0, 0.0, 0.0, 0.0, 0.0, 0.0, 0.0, 1.677704197991719E9, 0.0, 2023-03-01 12:56:37.991
192.0, 15865.178807399132, 19570.651003199935, 0.0, 0.0, 0.0, -187500.02235174447, -187500.02235174447, 0.0, 0.386, -0.9480000000000001, -0.21, 192.0, 0.0, 0.0, 0.0, 0.0, 0.0, 0.0, 0.0, 0.0, 0.0, 1.677704197998781E9, 0.0, 2023-03-01 12:56:37.998
193.0, 15857.780379984426, 19563.25257578523, 0.0, 0.0, 0.0, -187500.02235174447, -187500.02235174447, 0.0, 0.386, -0.9480000000000001, -0.21, 192.0, 0.0, 0.0, 0.0, 0.0, 0.0, 0.0, 0.0, 0.0, 0.0, 1.677704197998796E9, 0.0, 2023-03-01 12:56:37.998
194.0, 15855.500502049985, 19564.973660108288, 0.0, 0.0, 0.0, -187500.02235174447, -187500.02235174447, 0.0, 0.386, -0.9480000000000001, -0.21, 192.0, 0.0, 0.0, 0.0, 0.0, 0.0, 0.0, 0.0, 0.0, 0.0, 1.677704198006278E9, 0.0, 2023-03-01 12:56:38.006
195.0, 15850.04667640289, 19560.279793772675, 0.0, 0.0, 0.0, -187500.02235174447, -187500.02235174447, 0.0, 0.386, -0.9480000000000001, -0.21, 192.0, 0.0, 0.0, 0.0, 0.0, 0.0, 0.0, 0.0, 0.0, 0.0, 1.677704198006287E9, 0.0, 2023-03-01 12:56:38.006
196.0, 15853.667659004648, 19567.208834553818, 0.0, 0.0, 0.0, -187500.02235174447, -187500.02235174447, 0.0, 0.386, -0.9480000000000001, -0.21, 192.0, 0.0, 0.0, 0.0, 0.0, 0.0, 0.0, 0.0, 0.0, 0.0, 1.677704198014361E9, 0.0, 2023-03-01 12:56:38.014
197.0, 15853.891176449202, 19563.990183352256, 0.0, 0.0, 0.0, -187500.02235174447, -187500.02235174447, 0.0, 0.386, -0.9480000000000001, -0.21, 192.0, 0.0, 0.0, 0.0, 0.0, 0.0, 0.0, 0.0, 0.0, 0.0, 1.677704198014377E9, 0.0, 2023-03-01 12:56:38.014
198.0, 15858.093304406799, 19565.73361941977, 0.0, 0.0, 0.0, -187500.02235174447, -187500.02235174447, 0.0, 0.386, -0.9480000000000001, -0.21, 192.0, 0.0, 0.0, 0.0, 0.0, 0.0, 0.0, 0.0, 0.0, 0.0, 1.677704198022294E9, 0.0, 2023-03-01 12:56:38.022
199.0, 15865.022345187945, 19575.30016604664, 0.0, 0.0, 0.0, -187500.02235174447, -187500.02235174447, 0.0, 0.386, -0.9480000000000001, -0.21, 192.0, 0.0, 0.0, 0.0, 0.0, 0.0, 0.0, 0.0, 0.0, 0.0, 1.677704198022311E9, 0.0, 2023-03-01 12:56:38.022
200.0, 15858.696801507092, 19567.365296765005, 0.0, 0.0, 0.0, -187500.02235174447, -187500.02235174447, 0.0, 0.394, -0.9540000000000001, -0.202, 192.0, 12.0, 80.0, 226.0, 48.0, 249.0, 176.0, 0.0, 0.0, 0.0, 1.677704198028896E9, 0.0, 2023-03-01 12:56:38.028
201.0, 15850.873690947736, 19563.319631018596, 0.0, 0.0, 0.0, -187500.02235174447, -187500.02235174447, 0.0, 0.394, -0.9540000000000001, -0.202, 192.0, 0.0, 0.0, 0.0, 0.0, 0.0, 0.0, 0.0, 0.0, 0.0, 1.677704198028912E9, 0.0, 2023-03-01 12:56:38.028
202.0, 15850.605470014272, 19571.343907278053, 0.0, 0.0, 0.0, -187500.02235174447, -187500.02235174447, 0.0, 0.394, -0.9540000000000001, -0.202, 192.0, 0.0, 0.0, 0.0, 0.0, 0.0, 0.0, 0.0, 0.0, 0.0, 1.67770419803602E9, 0.0, 2023-03-01 12:56:38.036
203.0, 15855.433446816618, 19568.460532243316, 0.0, 0.0, 0.0, -187500.02235174447, -187500.02235174447, 0.0, 0.394, -0.9540000000000001, -0.202, 192.0, 0.0, 0.0, 0.0, 0.0, 0.0, 0.0, 0.0, 0.0, 0.0, 1.677704198043984E9, 0.0, 2023-03-01 12:56:38.043
204.0, 15845.889251934203, 19559.58688969456, 0.0, 0.0, 0.0, -187500.02235174447, -187500.02235174447, 0.0, 0.394, -0.9540000000000001, -0.202, 192.0, 0.0, 0.0, 0.0, 0.0, 0.0, 0.0, 0.0, 0.0, 0.0, 1.677704198043998E9, 0.0, 2023-03-01 12:56:38.043
205.0, 15847.18565311261, 19559.74335190575, 0.0, 0.0, 0.0, -187500.02235174447, -187500.02235174447, 0.0, 0.394, -0.9540000000000001, -0.202, 192.0, 0.0, 0.0, 0.0, 0.0, 0.0, 0.0, 0.0, 0.0, 0.0, 1.677704198051048E9, 0.0, 2023-03-01 12:56:38.051
206.0, 15842.312972821353, 19553.686029158358, 0.0, 0.0, 0.0, -187500.02235174447, -187500.02235174447, 0.0, 0.394, -0.9540000000000001, -0.202, 192.0, 0.0, 0.0, 0.0, 0.0, 0.0, 0.0, 0.0, 0.0, 0.0, 1.677704198051059E9, 0.0, 2023-03-01 12:56:38.051
207.0, 15849.979621169523, 19564.481921730272, 0.0, 0.0, 0.0, -187500.02235174447, -187500.02235174447, 0.0, 0.394, -0.9540000000000001, -0.202, 192.0, 0.0, 0.0, 0.0, 0.0, 0.0, 0.0, 0.0, 0.0, 0.0, 1.677704198059929E9, 0.0, 2023-03-01 12:56:38.059
208.0, 15849.487882791505, 19565.800674653136, 0.0, 0.0, 0.0, -187500.02235174447, -187500.02235174447, 0.0, 0.394, -0.9540000000000001, -0.202, 192.0, 0.0, 0.0, 0.0, 0.0, 0.0, 0.0, 0.0, 0.0, 0.0, 1.677704198059949E9, 0.0, 2023-03-01 12:56:38.059
209.0, 15845.397513556185, 19564.571328708094, 0.0, 0.0, 0.0, -187500.02235174447, -187500.02235174447, 0.0, 0.394, -0.9540000000000001, -0.202, 192.0, 0.0, 0.0, 0.0, 0.0, 0.0, 0.0, 0.0, 0.0, 0.0, 1.677704198066587E9, 0.0, 2023-03-01 12:56:38.066
210.0, 15854.338211338309, 19569.332250277075, 0.0, 0.0, 0.0, -187500.02235174447, -187500.02235174447, 0.0, 0.386, -0.96, -0.202, 192.0, 12.0, 16.0, 226.0, 0.0, 249.0, 176.0, 0.0, 0.0, 0.0, 1.677704198066603E9, 0.0, 2023-03-01 12:56:38.066
211.0, 15852.885347948713, 19562.649078684935, 0.0, 0.0, 0.0, -187500.02235174447, -187500.02235174447, 0.0, 0.386, -0.96, -0.202, 192.0, 0.0, 0.0, 0.0, 0.0, 0.0, 0.0, 0.0, 0.0, 0.0, 1.677704198074625E9, 0.0, 2023-03-01 12:56:38.074
212.0, 15855.858129961269, 19568.125256076488, 0.0, 0.0, 0.0, -187500.02235174447, -187500.02235174447, 0.0, 0.386, -0.96, -0.202, 192.0, 0.0, 0.0, 0.0, 0.0, 0.0, 0.0, 0.0, 0.0, 0.0, 1.677704198074641E9, 0.0, 2023-03-01 12:56:38.074
213.0, 15854.002935171478, 19567.991145609754, 0.0, 0.0, 0.0, -187500.02235174447, -187500.02235174447, 0.0, 0.386, -0.96, -0.202, 192.0, 0.0, 0.0, 0.0, 0.0, 0.0, 0.0, 0.0, 0.0, 0.0, 1.677704198081209E9, 0.0, 2023-03-01 12:56:38.081
214.0, 15859.099132907288, 19568.30407003213, 0.0, 0.0, 0.0, -187500.02235174447, -187500.02235174447, 0.0, 0.386, -0.96, -0.202, 192.0, 0.0, 0.0, 0.0, 0.0, 0.0, 0.0, 0.0, 0.0, 0.0, 1.677704198081222E9, 0.0, 2023-03-01 12:56:38.081
215.0, 15851.94657468159, 19559.63159318347, 0.0, 0.0, 0.0, -187500.02235174447, -187500.02235174447, 0.0, 0.386, -0.96, -0.202, 192.0, 0.0, 0.0, 0.0, 0.0, 0.0, 0.0, 0.0, 0.0, 0.0, 1.677704198089262E9, 0.0, 2023-03-01 12:56:38.089
216.0, 15849.309068835864, 19560.145683305942, 0.0, 0.0, 0.0, -187500.02235174447, -187500.02235174447, 0.0, 0.386, -0.96, -0.202, 192.0, 0.0, 0.0, 0.0, 0.0, 0.0, 0.0, 0.0, 0.0, 0.0, 1.677704198089275E9, 0.0, 2023-03-01 12:56:38.089
217.0, 15841.575365254328, 19553.77543613618, 0.0, 0.0, 0.0, -187500.02235174447, -187500.02235174447, 0.0, 0.386, -0.96, -0.202, 192.0, 0.0, 0.0, 0.0, 0.0, 0.0, 0.0, 0.0, 0.0, 0.0, 1.677704198096332E9, 0.0, 2023-03-01 12:56:38.096
218.0, 15836.769740196436, 19550.86970935699, 0.0, 0.0, 0.0, -187500.02235174447, -187500.02235174447, 0.0, 0.386, -0.96, -0.202, 192.0, 0.0, 0.0, 0.0, 0.0, 0.0, 0.0, 0.0, 0.0, 0.0, 1.677704198104186E9, 0.0, 2023-03-01 12:56:38.104
219.0, 15842.156510610166, 19552.859014613514, 0.0, 0.0, 0.0, -187500.02235174447, -187500.02235174447, 0.0, 0.386, -0.96, -0.202, 192.0, 0.0, 0.0, 0.0, 0.0, 0.0, 0.0, 0.0, 0.0, 0.0, 1.677704198104205E9, 0.0, 2023-03-01 12:56:38.104
220.0, 15845.173996111633, 19552.25551751322, 0.0, 0.0, 0.0, -187500.02235174447, -187500.02235174447, 0.0, 0.386, -0.96, -0.202, 192.0, 0.0, 0.0, 0.0, 0.0, 0.0, 0.0, 0.0, 0.0, 0.0, 1.677704198110875E9, 0.0, 2023-03-01 12:56:38.110
221.0, 15845.173996111633, 19558.759875149713, 0.0, 0.0, 0.0, -187500.02235174447, -187500.02235174447, 0.0, 0.4, -0.9560000000000001, -0.198, 192.0, 12.0, 128.0, 226.0, 32.0, 249.0, 208.0, 0.0, 0.0, 0.0, 1.677704198110895E9, 0.0, 2023-03-01 12:56:38.110
222.0, 15841.351847809774, 19555.295354759142, 0.0, 0.0, 0.0, -187500.02235174447, -187500.02235174447, 0.0, 0.4, -0.9560000000000001, -0.198, 192.0, 0.0, 0.0, 0.0, 0.0, 0.0, 0.0, 0.0, 0.0, 0.0, 1.677704198118978E9, 0.0, 2023-03-01 12:56:38.118
223.0, 15844.168167611144, 19554.848319870034, 0.0, 0.0, 0.0, -187500.02235174447, -187500.02235174447, 0.0, 0.4, -0.9560000000000001, -0.198, 192.0, 0.0, 0.0, 0.0, 0.0, 0.0, 0.0, 0.0, 0.0, 0.0, 1.677704198118993E9, 0.0, 2023-03-01 12:56:38.118
224.0, 15844.235222844509, 19556.63645942646, 0.0, 0.0, 0.0, -187500.02235174447, -187500.02235174447, 0.0, 0.4, -0.9560000000000001, -0.198, 192.0, 0.0, 0.0, 0.0, 0.0, 0.0, 0.0, 0.0, 0.0, 0.0, 1.677704198126821E9, 0.0, 2023-03-01 12:56:38.126
225.0, 15848.035019401912, 19563.20787229632, 0.0, 0.0, 0.0, -187500.02235174447, -187500.02235174447, 0.0, 0.4, -0.9560000000000001, -0.198, 192.0, 0.0, 0.0, 0.0, 0.0, 0.0, 0.0, 0.0, 0.0, 0.0, 1.677704198126832E9, 0.0, 2023-03-01 12:56:38.126
226.0, 15848.28088859092, 19568.661697943415, 0.0, 0.0, 0.0, -187500.02235174447, -187500.02235174447, 0.0, 0.4, -0.9560000000000001, -0.198, 192.0, 0.0, 0.0, 0.0, 0.0, 0.0, 0.0, 0.0, 0.0, 0.0, 1.677704198134067E9, 0.0, 2023-03-01 12:56:38.134
227.0, 15846.895080434691, 19568.415828754405, 0.0, 0.0, 0.0, -187500.02235174447, -187500.02235174447, 0.0, 0.4, -0.9560000000000001, -0.198, 192.0, 0.0, 0.0, 0.0, 0.0, 0.0, 0.0, 0.0, 0.0, 0.0, 1.67770419813408E9, 0.0, 2023-03-01 12:56:38.134
228.0, 15845.196347856087, 19557.932860604866, 0.0, 0.0, 0.0, -187500.02235174447, -187500.02235174447, 0.0, 0.4, -0.9560000000000001, -0.198, 192.0, 0.0, 0.0, 0.0, 0.0, 0.0, 0.0, 0.0, 0.0, 0.0, 1.677704198141494E9, 0.0, 2023-03-01 12:56:38.141
229.0, 15837.41794078564, 19547.718113388793, 0.0, 0.0, 0.0, -187500.02235174447, -187500.02235174447, 0.0, 0.4, -0.9560000000000001, -0.198, 192.0, 0.0, 0.0, 0.0, 0.0, 0.0, 0.0, 0.0, 0.0, 0.0, 1.677704198141506E9, 0.0, 2023-03-01 12:56:38.141
230.0, 15838.647286730682, 19553.39545648044, 0.0, 0.0, 0.0, -187500.02235174447, -187500.02235174447, 0.0, 0.4, -0.9560000000000001, -0.198, 192.0, 0.0, 0.0, 0.0, 0.0, 0.0, 0.0, 0.0, 0.0, 0.0, 1.677704198149501E9, 0.0, 2023-03-01 12:56:38.149
231.0, 15837.954382652568, 19547.852223855523, 0.0, 0.0, 0.0, -187500.02235174447, -187500.02235174447, 0.0, 0.392, -0.962, -0.202, 192.0, 12.0, 64.0, 225.0, 240.0, 249.0, 176.0, 0.0, 0.0, 0.0, 1.677704198149518E9, 0.0, 2023-03-01 12:56:38.149
232.0, 15837.75321695247, 19550.69089540135, 0.0, 0.0, 0.0, -187500.02235174447, -187500.02235174447, 0.0, 0.392, -0.962, -0.202, 192.0, 0.0, 0.0, 0.0, 0.0, 0.0, 0.0, 0.0, 0.0, 0.0, 1.677704198156523E9, 0.0, 2023-03-01 12:56:38.156
233.0, 15837.775568696925, 19556.502348959726, 0.0, 0.0, 0.0, -187500.02235174447, -187500.02235174447, 0.0, 0.392, -0.962, -0.202, 192.0, 0.0, 0.0, 0.0, 0.0, 0.0, 0.0, 0.0, 0.0, 0.0, 1.677704198163686E9, 0.0, 2023-03-01 12:56:38.163
234.0, 15843.877594933225, 19561.039753084155, 0.0, 0.0, 0.0, -187500.02235174447, -187500.02235174447, 0.0, 0.392, -0.962, -0.202, 192.0, 0.0, 0.0, 0.0, 0.0, 0.0, 0.0, 0.0, 0.0, 0.0, 1.677704198163704E9, 0.0, 2023-03-01 12:56:38.163
235.0, 15834.333400050808, 19545.706456387816, 0.0, 0.0, 0.0, -187500.02235174447, -187500.02235174447, 0.0, 0.392, -0.962, -0.202, 192.0, 0.0, 0.0, 0.0, 0.0, 0.0, 0.0, 0.0, 0.0, 0.0, 1.677704198171247E9, 0.0, 2023-03-01 12:56:38.171
236.0, 15829.416016270641, 19543.42657845337, 0.0, 0.0, 0.0, -187500.02235174447, -187500.02235174447, 0.0, 0.392, -0.962, -0.202, 192.0, 0.0, 0.0, 0.0, 0.0, 0.0, 0.0, 0.0, 0.0, 0.0, 1.677704198171261E9, 0.0, 2023-03-01 12:56:38.171
237.0, 15833.484033761506, 19545.594697665536, 0.0, 0.0, 0.0, -187500.02235174447, -187500.02235174447, 0.0, 0.392, -0.962, -0.202, 192.0, 0.0, 0.0, 0.0, 0.0, 0.0, 0.0, 0.0, 0.0, 0.0, 1.67770419817918E9, 0.0, 2023-03-01 12:56:38.179
238.0, 15832.500557005473, 19547.986334322257, 0.0, 0.0, 0.0, -187500.02235174447, -187500.02235174447, 0.0, 0.392, -0.962, -0.202, 192.0, 0.0, 0.0, 0.0, 0.0, 0.0, 0.0, 0.0, 0.0, 0.0, 1.677704198179193E9, 0.0, 2023-03-01 12:56:38.179
239.0, 15830.935934893601, 19546.242898254743, 0.0, 0.0, 0.0, -187500.02235174447, -187500.02235174447, 0.0, 0.392, -0.962, -0.202, 192.0, 0.0, 0.0, 0.0, 0.0, 0.0, 0.0, 0.0, 0.0, 0.0, 1.677704198187247E9, 0.0, 2023-03-01 12:56:38.187
240.0, 15835.272173317931, 19547.58400292206, 0.0, 0.0, 0.0, -187500.02235174447, -187500.02235174447, 0.0, 0.392, -0.962, -0.202, 192.0, 0.0, 0.0, 0.0, 0.0, 0.0, 0.0, 0.0, 0.0, 0.0, 1.677704198187303E9, 0.0, 2023-03-01 12:56:38.187
241.0, 15834.378103539719, 19545.68410464336, 0.0, 0.0, 0.0, -187500.02235174447, -187500.02235174447, 0.0, 0.394, -0.9540000000000001, -0.198, 192.0, 12.0, 80.0, 226.0, 48.0, 249.0, 208.0, 0.0, 0.0, 0.0, 1.677704198193759E9, 0.0, 2023-03-01 12:56:38.193
242.0, 15838.021437885935, 19547.62870641097, 0.0, 0.0, 0.0, -187500.02235174447, -187500.02235174447, 0.0, 0.394, -0.9540000000000001, -0.198, 192.0, 0.0, 0.0, 0.0, 0.0, 0.0, 0.0, 0.0, 0.0, 0.0, 1.677704198193775E9, 0.0, 2023-03-01 12:56:38.193
243.0, 15845.911603678656, 19555.16124429241, 0.0, 0.0, 0.0, -187500.02235174447, -187500.02235174447, 0.0, 0.394, -0.9540000000000001, -0.198, 192.0, 0.0, 0.0, 0.0, 0.0, 0.0, 0.0, 0.0, 0.0, 0.0, 1.677704198201885E9, 0.0, 2023-03-01 12:56:38.201
244.0, 15843.765836210947, 19555.00478208122, 0.0, 0.0, 0.0, -187500.02235174447, -187500.02235174447, 0.0, 0.394, -0.9540000000000001, -0.198, 192.0, 0.0, 0.0, 0.0, 0.0, 0.0, 0.0, 0.0, 0.0, 0.0, 1.677704198201904E9, 0.0, 2023-03-01 12:56:38.201
245.0, 15843.542318766395, 19553.90954660291, 0.0, 0.0, 0.0, -187500.02235174447, -187500.02235174447, 0.0, 0.394, -0.9540000000000001, -0.198, 192.0, 0.0, 0.0, 0.0, 0.0, 0.0, 0.0, 0.0, 0.0, 0.0, 1.677704198209836E9, 0.0, 2023-03-01 12:56:38.209
246.0, 15848.794978713391, 19562.000878095732, 0.0, 0.0, 0.0, -187500.02235174447, -187500.02235174447, 0.0, 0.394, -0.9540000000000001, -0.198, 192.0, 0.0, 0.0, 0.0, 0.0, 0.0, 0.0, 0.0, 0.0, 0.0, 1.67770419820985E9, 0.0, 2023-03-01 12:56:38.209
247.0, 15846.85037694578, 19558.53635770516, 0.0, 0.0, 0.0, -187500.02235174447, -187500.02235174447, 0.0, 0.394, -0.9540000000000001, -0.198, 192.0, 0.0, 0.0, 0.0, 0.0, 0.0, 0.0, 0.0, 0.0, 0.0, 1.677704198217086E9, 0.0, 2023-03-01 12:56:38.217
248.0, 15840.480129776017, 19557.64228792695, 0.0, 0.0, 0.0, -187500.02235174447, -187500.02235174447, 0.0, 0.394, -0.9540000000000001, -0.198, 192.0, 0.0, 0.0, 0.0, 0.0, 0.0, 0.0, 0.0, 0.0, 0.0, 1.6777041982171E9, 0.0, 2023-03-01 12:56:38.217
249.0, 15841.195385598587, 19557.23995652675, 0.0, 0.0, 0.0, -187500.02235174447, -187500.02235174447, 0.0, 0.394, -0.9540000000000001, -0.198, 192.0, 0.0, 0.0, 0.0, 0.0, 0.0, 0.0, 0.0, 0.0, 0.0, 1.677704198223475E9, 0.0, 2023-03-01 12:56:38.223
250.0, 15836.501519262973, 19549.81917736759, 0.0, 0.0, 0.0, -187500.02235174447, -187500.02235174447, 0.0, 0.394, -0.9540000000000001, -0.198, 192.0, 0.0, 0.0, 0.0, 0.0, 0.0, 0.0, 0.0, 0.0, 0.0, 1.6777041982314E9, 0.0, 2023-03-01 12:56:38.231
251.0, 15835.071007617833, 19550.757950634714, 0.0, 0.0, 0.0, -187500.02235174447, -187500.02235174447, 0.0, 0.388, -0.9540000000000001, -0.19, 192.0, 12.0, 32.0, 226.0, 48.0, 250.0, 16.0, 0.0, 0.0, 0.0, 1.677704198231418E9, 0.0, 2023-03-01 12:56:38.231
252.0, 15837.127368107722, 19550.757950634714, 0.0, 0.0, 0.0, -187500.02235174447, -187500.02235174447, 0.0, 0.388, -0.9540000000000001, -0.19, 192.0, 0.0, 0.0, 0.0, 0.0, 0.0, 0.0, 0.0, 0.0, 0.0, 1.677704198239516E9, 0.0, 2023-03-01 12:56:38.239
253.0, 15839.720170464538, 19552.635497168958, 0.0, 0.0, 0.0, -187500.02235174447, -187500.02235174447, 0.0, 0.388, -0.9540000000000001, -0.19, 192.0, 0.0, 0.0, 0.0, 0.0, 0.0, 0.0, 0.0, 0.0, 0.0, 1.677704198239537E9, 0.0, 2023-03-01 12:56:38.239
254.0, 15836.389760540696, 19554.423636725383, 0.0, 0.0, 0.0, -187500.02235174447, -187500.02235174447, 0.0, 0.388, -0.9540000000000001, -0.19, 192.0, 0.0, 0.0, 0.0, 0.0, 0.0, 0.0, 0.0, 0.0, 0.0, 1.677704198245974E9, 0.0, 2023-03-01 12:56:38.245
255.0, 15831.405321527163, 19552.09905530203, 0.0, 0.0, 0.0, -187500.02235174447, -187500.02235174447, 0.0, 0.388, -0.9540000000000001, -0.19, 192.0, 0.0, 0.0, 0.0, 0.0, 0.0, 0.0, 0.0, 0.0, 0.0, 1.677704198245993E9, 0.0, 2023-03-01 12:56:38.245
0.0, 15832.03117037191, 19550.69089540135, 0.0, 0.0, 0.0, -187500.02235174447, -187500.02235174447, 0.0, 0.388, -0.9540000000000001, -0.19, 192.0, 0.0, 0.0, 0.0, 0.0, 0.0, 0.0, 0.0, 0.0, 0.0, 1.677704198254121E9, 0.0, 2023-03-01 12:56:38.254
1.0, 15837.663809974649, 19557.932860604866, 0.0, 0.0, 0.0, -187500.02235174447, -187500.02235174447, 0.0, 0.388, -0.9540000000000001, -0.19, 192.0, 0.0, 0.0, 0.0, 0.0, 0.0, 0.0, 0.0, 0.0, 0.0, 1.677704198254137E9, 0.0, 2023-03-01 12:56:38.254
2.0, 15842.223565843531, 19559.028096083177, 0.0, 0.0, 0.0, -187500.02235174447, -187500.02235174447, 0.0, 0.388, -0.9540000000000001, -0.19, 192.0, 0.0, 0.0, 0.0, 0.0, 0.0, 0.0, 0.0, 0.0, 0.0, 1.677704198262018E9, 0.0, 2023-03-01 12:56:38.262
3.0, 15836.009780884957, 19557.083494315564, 0.0, 0.0, 0.0, -187500.02235174447, -187500.02235174447, 0.0, 0.388, -0.9540000000000001, -0.19, 192.0, 0.0, 0.0, 0.0, 0.0, 0.0, 0.0, 0.0, 0.0, 0.0, 1.677704198262033E9, 0.0, 2023-03-01 12:56:38.262
4.0, 15825.236240057498, 19543.71715113129, 0.0, 0.0, 0.0, -187500.02235174447, -187500.02235174447, 0.0, 0.388, -0.9540000000000001, -0.19, 192.0, 0.0, 0.0, 0.0, 0.0, 0.0, 0.0, 0.0, 0.0, 0.0, 1.677704198269271E9, 0.0, 2023-03-01 12:56:38.269
5.0, 15818.530716720907, 19536.72105511678, 0.0, 0.0, 0.0, -187500.02235174447, -187500.02235174447, 0.0, 0.384, -0.96, -0.19, 192.0, 12.0, 0.0, 226.0, 0.0, 250.0, 16.0, 0.0, 0.0, 0.0, 1.677704198269283E9, 0.0, 2023-03-01 12:56:38.269
6.0, 15823.962190623546, 19544.320648231584, 0.0, 0.0, 0.0, -187500.02235174447, -187500.02235174447, 0.0, 0.384, -0.96, -0.19, 192.0, 0.0, 0.0, 0.0, 0.0, 0.0, 0.0, 0.0, 0.0, 0.0, 1.677704198276657E9, 0.0, 2023-03-01 12:56:38.276
7.0, 15823.492803989984, 19542.10782553051, 0.0, 0.0, 0.0, -187500.02235174447, -187500.02235174447, 0.0, 0.384, -0.96, -0.19, 192.0, 0.0, 0.0, 0.0, 0.0, 0.0, 0.0, 0.0, 0.0, 0.0, 1.677704198276675E9, 0.0, 2023-03-01 12:56:38.276
8.0, 15825.884440646701, 19539.58207840706, 0.0, 0.0, 0.0, -187500.02235174447, -187500.02235174447, 0.0, 0.384, -0.96, -0.19, 192.0, 0.0, 0.0, 0.0, 0.0, 0.0, 0.0, 0.0, 0.0, 0.0, 1.677704198283745E9, 0.0, 2023-03-01 12:56:38.283
9.0, 15829.416016270641, 19545.43823545435, 0.0, 0.0, 0.0, -187500.02235174447, -187500.02235174447, 0.0, 0.384, -0.96, -0.19, 192.0, 0.0, 0.0, 0.0, 0.0, 0.0, 0.0, 0.0, 0.0, 0.0, 1.677704198291738E9, 0.0, 2023-03-01 12:56:38.291
10.0, 15838.736693708504, 19548.723941889282, 0.0, 0.0, 0.0, -187500.02235174447, -187500.02235174447, 0.0, 0.384, -0.96, -0.19, 192.0, 0.0, 0.0, 0.0, 0.0, 0.0, 0.0, 0.0, 0.0, 0.0, 1.677704198291755E9, 0.0, 2023-03-01 12:56:38.291
11.0, 15839.317839064342, 19548.656886655914, 0.0, 0.0, 0.0, -187500.02235174447, -187500.02235174447, 0.0, 0.384, -0.96, -0.19, 192.0, 0.0, 0.0, 0.0, 0.0, 0.0, 0.0, 0.0, 0.0, 0.0, 1.677704198298839E9, 0.0, 2023-03-01 12:56:38.298
12.0, 15830.958286638057, 19545.237069754254, 0.0, 0.0, 0.0, -187500.02235174447, -187500.02235174447, 0.0, 0.384, -0.96, -0.19, 192.0, 0.0, 0.0, 0.0, 0.0, 0.0, 0.0, 0.0, 0.0, 0.0, 1.67770419829885E9, 0.0, 2023-03-01 12:56:38.298
13.0, 15836.948554152079, 19554.49069195875, 0.0, 0.0, 0.0, -187500.02235174447, -187500.02235174447, 0.0, 0.384, -0.96, -0.19, 192.0, 0.0, 0.0, 0.0, 0.0, 0.0, 0.0, 0.0, 0.0, 0.0, 1.677704198306451E9, 0.0, 2023-03-01 12:56:38.306
14.0, 15841.0389233874, 19553.238994269253, 0.0, 0.0, 0.0, -187500.02235174447, -187500.02235174447, 0.0, 0.384, -0.96, -0.19, 192.0, 0.0, 0.0, 0.0, 0.0, 0.0, 0.0, 0.0, 0.0, 0.0, 1.677704198306468E9, 0.0, 2023-03-01 12:56:38.306
15.0, 15840.703647220571, 19555.988258837257, 0.0, 0.0, 0.0, -187500.02235174447, -187500.02235174447, 0.0, 0.38, -0.962, -0.192, 192.0, 11.0, 224.0, 225.0, 240.0, 250.0, 0.0, 0.0, 0.0, 0.0, 1.677704198314291E9, 0.0, 2023-03-01 12:56:38.314
16.0, 15847.94561242409, 19566.560633964615, 0.0, 0.0, 0.0, -187500.02235174447, -187500.02235174447, 0.0, 0.38, -0.962, -0.192, 192.0, 0.0, 0.0, 0.0, 0.0, 0.0, 0.0, 0.0, 0.0, 0.0, 1.677704198314302E9, 0.0, 2023-03-01 12:56:38.314
17.0, 15845.285754833909, 19561.44208448435, 0.0, 0.0, 0.0, -187500.02235174447, -187500.02235174447, 0.0, 0.38, -0.962, -0.192, 192.0, 0.0, 0.0, 0.0, 0.0, 0.0, 0.0, 0.0, 0.0, 0.0, 1.67770419832233E9, 0.0, 2023-03-01 12:56:38.322
18.0, 15844.70460947807, 19558.715171660802, 0.0, 0.0, 0.0, -187500.02235174447, -187500.02235174447, 0.0, 0.38, -0.962, -0.192, 192.0, 0.0, 0.0, 0.0, 0.0, 0.0, 0.0, 0.0, 0.0, 0.0, 1.677704198322345E9, 0.0, 2023-03-01 12:56:38.322
19.0, 15842.536490265906, 19557.910508860412, 0.0, 0.0, 0.0, -187500.02235174447, -187500.02235174447, 0.0, 0.38, -0.962, -0.192, 192.0, 0.0, 0.0, 0.0, 0.0, 0.0, 0.0, 0.0, 0.0, 0.0, 1.677704198328832E9, 0.0, 2023-03-01 12:56:38.328
20.0, 15851.410132814663, 19563.699610674335, 0.0, 0.0, 0.0, -187500.02235174447, -187500.02235174447, 0.0, 0.38, -0.962, -0.192, 192.0, 0.0, 0.0, 0.0, 0.0, 0.0, 0.0, 0.0, 0.0, 0.0, 1.677704198328859E9, 0.0, 2023-03-01 12:56:38.328
21.0, 15845.509272278461, 19561.665601928904, 0.0, 0.0, 0.0, -187500.02235174447, -187500.02235174447, 0.0, 0.38, -0.962, -0.192, 192.0, 0.0, 0.0, 0.0, 0.0, 0.0, 0.0, 0.0, 0.0, 0.0, 1.677704198337042E9, 0.0, 2023-03-01 12:56:38.337
22.0, 15849.867862447247, 19567.141779320453, 0.0, 0.0, 0.0, -187500.02235174447, -187500.02235174447, 0.0, 0.38, -0.962, -0.192, 192.0, 0.0, 0.0, 0.0, 0.0, 0.0, 0.0, 0.0, 0.0, 0.0, 1.677704198337061E9, 0.0, 2023-03-01 12:56:38.337
23.0, 15857.176882884132, 19567.92409037639, 0.0, 0.0, 0.0, -187500.02235174447, -187500.02235174447, 0.0, 0.38, -0.962, -0.192, 192.0, 0.0, 0.0, 0.0, 0.0, 0.0, 0.0, 0.0, 0.0, 0.0, 1.677704198344012E9, 0.0, 2023-03-01 12:56:38.344
24.0, 15853.488845049007, 19564.45956998582, 0.0, 0.0, 0.0, -187500.02235174447, -187500.02235174447, 0.0, 0.38, -0.962, -0.192, 192.0, 0.0, 0.0, 0.0, 0.0, 0.0, 0.0, 0.0, 0.0, 0.0, 1.677704198354938E9, 0.0, 2023-03-01 12:56:38.354
25.0, 15852.415961315151, 19567.186482809364, 0.0, 0.0, 0.0, -187500.02235174447, -187500.02235174447, 0.0, 0.374, -0.9520000000000001, -0.19, 192.0, 11.0, 176.0, 226.0, 64.0, 250.0, 16.0, 0.0, 0.0, 0.0, 1.677704198354951E9, 0.0, 2023-03-01 12:56:38.354
26.0, 15847.856205446269, 19560.704476917326, 0.0, 0.0, 0.0, -187500.02235174447, -187500.02235174447, 0.0, 0.374, -0.9520000000000001, -0.19, 192.0, 0.0, 0.0, 0.0, 0.0, 0.0, 0.0, 0.0, 0.0, 0.0, 1.677704198361142E9, 0.0, 2023-03-01 12:56:38.361
27.0, 15848.70557173557, 19561.77736065118, 0.0, 0.0, 0.0, -187500.02235174447, -187500.02235174447, 0.0, 0.374, -0.9520000000000001, -0.19, 192.0, 0.0, 0.0, 0.0, 0.0, 0.0, 0.0, 0.0, 0.0, 0.0, 1.677704198361151E9, 0.0, 2023-03-01 12:56:38.361
28.0, 15855.589909027805, 19571.03098285568, 0.0, 0.0, 0.0, -187500.02235174447, -187500.02235174447, 0.0, 0.374, -0.9520000000000001, -0.19, 192.0, 0.0, 0.0, 0.0, 0.0, 0.0, 0.0, 0.0, 0.0, 0.0, 1.677704198367376E9, 0.0, 2023-03-01 12:56:38.367
29.0, 15855.56755728335, 19568.795808410145, 0.0, 0.0, 0.0, -187500.02235174447, -187500.02235174447, 0.0, 0.374, -0.9520000000000001, -0.19, 192.0, 0.0, 0.0, 0.0, 0.0, 0.0, 0.0, 0.0, 0.0, 0.0, 1.6777041983674E9, 0.0, 2023-03-01 12:56:38.367
30.0, 15854.9417084386, 19567.857035143024, 0.0, 0.0, 0.0, -187500.02235174447, -187500.02235174447, 0.0, 0.374, -0.9520000000000001, -0.19, 192.0, 0.0, 0.0, 0.0, 0.0, 0.0, 0.0, 0.0, 0.0, 0.0, 1.677704198374599E9, 0.0, 2023-03-01 12:56:38.374
31.0, 15858.47328406254, 19572.707363689824, 0.0, 0.0, 0.0, -187500.02235174447, -187500.02235174447, 0.0, 0.374, -0.9520000000000001, -0.19, 192.0, 0.0, 0.0, 0.0, 0.0, 0.0, 0.0, 0.0, 0.0, 0.0, 1.677704198374614E9, 0.0, 2023-03-01 12:56:38.374
32.0, 15856.685144506115, 19570.58394796657, 0.0, 0.0, 0.0, -187500.02235174447, -187500.02235174447, 0.0, 0.374, -0.9520000000000001, -0.19, 192.0, 0.0, 0.0, 0.0, 0.0, 0.0, 0.0, 0.0, 0.0, 0.0, 1.677704198381757E9, 0.0, 2023-03-01 12:56:38.381
33.0, 15860.440237574607, 19573.154398578932, 0.0, 0.0, 0.0, -187500.02235174447, -187500.02235174447, 0.0, 0.374, -0.9520000000000001, -0.19, 192.0, 0.0, 0.0, 0.0, 0.0, 0.0, 0.0, 0.0, 0.0, 0.0, 1.6777041983818E9, 0.0, 2023-03-01 12:56:38.381
34.0, 15859.166188140654, 19569.511064232716, 0.0, 0.0, 0.0, -187500.02235174447, -187500.02235174447, 0.0, 0.374, -0.9520000000000001, -0.19, 192.0, 0.0, 0.0, 0.0, 0.0, 0.0, 0.0, 0.0, 0.0, 0.0, 1.677704198389758E9, 0.0, 2023-03-01 12:56:38.389
35.0, 15852.348906081786, 19557.932860604866, 0.0, 0.0, 0.0, -187500.02235174447, -187500.02235174447, 0.0, 0.378, -0.9580000000000001, -0.184, 192.0, 11.0, 208.0, 226.0, 16.0, 250.0, 64.0, 0.0, 0.0, 0.0, 1.67770419838977E9, 0.0, 2023-03-01 12:56:38.389
36.0, 15843.207042599564, 19558.044619327142, 0.0, 0.0, 0.0, -187500.02235174447, -187500.02235174447, 0.0, 0.378, -0.9580000000000001, -0.184, 192.0, 0.0, 0.0, 0.0, 0.0, 0.0, 0.0, 0.0, 0.0, 0.0, 1.677704198397283E9, 0.0, 2023-03-01 12:56:38.397
37.0, 15842.894118177192, 19557.30701176012, 0.0, 0.0, 0.0, -187500.02235174447, -187500.02235174447, 0.0, 0.378, -0.9580000000000001, -0.184, 192.0, 0.0, 0.0, 0.0, 0.0, 0.0, 0.0, 0.0, 0.0, 0.0, 1.677704198397297E9, 0.0, 2023-03-01 12:56:38.397
38.0, 15844.391685055696, 19548.63453491146, 0.0, 0.0, 0.0, -187500.02235174447, -187500.02235174447, 0.0, 0.378, -0.9580000000000001, -0.184, 192.0, 0.0, 0.0, 0.0, 0.0, 0.0, 0.0, 0.0, 0.0, 0.0, 1.677704198405821E9, 0.0, 2023-03-01 12:56:38.405
39.0, 15844.212871100053, 19552.52373844668, 0.0, 0.0, 0.0, -187500.02235174447, -187500.02235174447, 0.0, 0.378, -0.9580000000000001, -0.184, 192.0, 0.0, 0.0, 0.0, 0.0, 0.0, 0.0, 0.0, 0.0, 0.0, 1.677704198412024E9, 0.0, 2023-03-01 12:56:38.412
40.0, 15842.245917587987, 19555.87650011498, 0.0, 0.0, 0.0, -187500.02235174447, -187500.02235174447, 0.0, 0.378, -0.9580000000000001, -0.184, 192.0, 0.0, 0.0, 0.0, 0.0, 0.0, 0.0, 0.0, 0.0, 0.0, 1.677704198412049E9, 0.0, 2023-03-01 12:56:38.412
41.0, 15837.507347763461, 19553.082532058066, 0.0, 0.0, 0.0, -187500.02235174447, -187500.02235174447, 0.0, 0.378, -0.9580000000000001, -0.184, 192.0, 0.0, 0.0, 0.0, 0.0, 0.0, 0.0, 0.0, 0.0, 0.0, 1.677704198418938E9, 0.0, 2023-03-01 12:56:38.418
42.0, 15843.542318766395, 19556.77056989319, 0.0, 0.0, 0.0, -187500.02235174447, -187500.02235174447, 0.0, 0.378, -0.9580000000000001, -0.184, 192.0, 0.0, 0.0, 0.0, 0.0, 0.0, 0.0, 0.0, 0.0, 0.0, 1.677704198418953E9, 0.0, 2023-03-01 12:56:38.418
43.0, 15844.503443777972, 19558.87163387199, 0.0, 0.0, 0.0, -187500.02235174447, -187500.02235174447, 0.0, 0.378, -0.9580000000000001, -0.184, 192.0, 0.0, 0.0, 0.0, 0.0, 0.0, 0.0, 0.0, 0.0, 0.0, 1.677704198427032E9, 0.0, 2023-03-01 12:56:38.427
44.0, 15849.577289769328, 19560.749180406237, 0.0, 0.0, 0.0, -187500.02235174447, -187500.02235174447, 0.0, 0.378, -0.9580000000000001, -0.184, 192.0, 0.0, 0.0, 0.0, 0.0, 0.0, 0.0, 0.0, 0.0, 0.0, 1.677704198427048E9, 0.0, 2023-03-01 12:56:38.427
45.0, 15847.1409496237, 19563.9678316078, 0.0, 0.0, 0.0, -187500.02235174447, -187500.02235174447, 0.0, 0.378, -0.9580000000000001, -0.184, 192.0, 0.0, 0.0, 0.0, 0.0, 0.0, 0.0, 0.0, 0.0, 0.0, 1.677704198434965E9, 0.0, 2023-03-01 12:56:38.434
46.0, 15844.235222844509, 19567.857035143024, 0.0, 0.0, 0.0, -187500.02235174447, -187500.02235174447, 0.0, 0.378, -0.9540000000000001, -0.186, 192.0, 11.0, 208.0, 226.0, 48.0, 250.0, 48.0, 0.0, 0.0, 0.0, 1.67770419843498E9, 0.0, 2023-03-01 12:56:38.434
47.0, 15843.788187955402, 19565.73361941977, 0.0, 0.0, 0.0, -187500.02235174447, -187500.02235174447, 0.0, 0.378, -0.9540000000000001, -0.186, 192.0, 0.0, 0.0, 0.0, 0.0, 0.0, 0.0, 0.0, 0.0, 0.0, 1.677704198441567E9, 0.0, 2023-03-01 12:56:38.441
48.0, 15837.909679163657, 19563.431389740872, 0.0, 0.0, 0.0, -187500.02235174447, -187500.02235174447, 0.0, 0.378, -0.9540000000000001, -0.186, 192.0, 0.0, 0.0, 0.0, 0.0, 0.0, 0.0, 0.0, 0.0, 0.0, 1.677704198441579E9, 0.0, 2023-03-01 12:56:38.441
49.0, 15841.664772232149, 19567.700572931837, 0.0, 0.0, 0.0, -187500.02235174447, -187500.02235174447, 0.0, 0.378, -0.9540000000000001, -0.186, 192.0, 0.0, 0.0, 0.0, 0.0, 0.0, 0.0, 0.0, 0.0, 0.0, 1.677704198449494E9, 0.0, 2023-03-01 12:56:38.449
50.0, 15842.357676310263, 19561.15151180643, 0.0, 0.0, 0.0, -187500.02235174447, -187500.02235174447, 0.0, 0.378, -0.9540000000000001, -0.186, 192.0, 0.0, 0.0, 0.0, 0.0, 0.0, 0.0, 0.0, 0.0, 0.0, 1.677704198449503E9, 0.0, 2023-03-01 12:56:38.449
51.0, 15842.80471119937, 19563.096113574044, 0.0, 0.0, 0.0, -187500.02235174447, -187500.02235174447, 0.0, 0.378, -0.9540000000000001, -0.186, 192.0, 0.0, 0.0, 0.0, 0.0, 0.0, 0.0, 0.0, 0.0, 0.0, 1.677704198457572E9, 0.0, 2023-03-01 12:56:38.457
52.0, 15842.111807121255, 19560.078628072577, 0.0, 0.0, 0.0, -187500.02235174447, -187500.02235174447, 0.0, 0.378, -0.9540000000000001, -0.186, 192.0, 0.0, 0.0, 0.0, 0.0, 0.0, 0.0, 0.0, 0.0, 0.0, 1.677704198457591E9, 0.0, 2023-03-01 12:56:38.457
53.0, 15849.912565936158, 19560.54801470614, 0.0, 0.0, 0.0, -187500.02235174447, -187500.02235174447, 0.0, 0.378, -0.9540000000000001, -0.186, 192.0, 0.0, 0.0, 0.0, 0.0, 0.0, 0.0, 0.0, 0.0, 0.0, 1.677704198463593E9, 0.0, 2023-03-01 12:56:38.463
54.0, 15843.56467051085, 19556.63645942646, 0.0, 0.0, 0.0, -187500.02235174447, -187500.02235174447, 0.0, 0.378, -0.9540000000000001, -0.186, 192.0, 0.0, 0.0, 0.0, 0.0, 0.0, 0.0, 0.0, 0.0, 0.0, 1.677704198463608E9, 0.0, 2023-03-01 12:56:38.463
55.0, 15840.815405942847, 19565.174825808386, 0.0, 0.0, 0.0, -187500.02235174447, -187500.02235174447, 0.0, 0.378, -0.9540000000000001, -0.186, 192.0, 0.0, 0.0, 0.0, 0.0, 0.0, 0.0, 0.0, 0.0, 0.0, 1.677704198471252E9, 0.0, 2023-03-01 12:56:38.471
56.0, 15844.503443777972, 19565.666564186402, 0.0, 0.0, 0.0, -187500.02235174447, -187500.02235174447, 0.0, 0.384, -0.9540000000000001, -0.17400000000000002, 192.0, 12.0, 0.0, 226.0, 48.0, 250.0, 144.0, 0.0, 0.0, 0.0, 1.677704198479268E9, 0.0, 2023-03-01 12:56:38.479
57.0, 15844.682257733615, 19556.63645942646, 0.0, 0.0, 0.0, -187500.02235174447, -187500.02235174447, 0.0, 0.384, -0.9540000000000001, -0.17400000000000002, 192.0, 0.0, 0.0, 0.0, 0.0, 0.0, 0.0, 0.0, 0.0, 0.0, 1.67770419847928E9, 0.0, 2023-03-01 12:56:38.479
58.0, 15854.606432271772, 19561.755008906726, 0.0, 0.0, 0.0, -187500.02235174447, -187500.02235174447, 0.0, 0.384, -0.9540000000000001, -0.17400000000000002, 192.0, 0.0, 0.0, 0.0, 0.0, 0.0, 0.0, 0.0, 0.0, 0.0, 1.677704198488794E9, 0.0, 2023-03-01 12:56:38.488
59.0, 15852.37125782624, 19565.30893627512, 0.0, 0.0, 0.0, -187500.02235174447, -187500.02235174447, 0.0, 0.384, -0.9540000000000001, -0.17400000000000002, 192.0, 0.0, 0.0, 0.0, 0.0, 0.0, 0.0, 0.0, 0.0, 0.0, 1.677704198488805E9, 0.0, 2023-03-01 12:56:38.488
60.0, 15852.103036892777, 19569.242843299253, 0.0, 0.0, 0.0, -187500.02235174447, -187500.02235174447, 0.0, 0.384, -0.9540000000000001, -0.17400000000000002, 192.0, 0.0, 0.0, 0.0, 0.0, 0.0, 0.0, 0.0, 0.0, 0.0, 1.677704198494856E9, 0.0, 2023-03-01 12:56:38.494
61.0, 15852.505368292972, 19575.143703835452, 0.0, 0.0, 0.0, -187500.02235174447, -187500.02235174447, 0.0, 0.384, -0.9540000000000001, -0.17400000000000002, 192.0, 0.0, 0.0, 0.0, 0.0, 0.0, 0.0, 0.0, 0.0, 0.0, 1.677704198494865E9, 0.0, 2023-03-01 12:56:38.494
62.0, 15859.702630007581, 19579.9716806378, 0.0, 0.0, 0.0, -187500.02235174447, -187500.02235174447, 0.0, 0.384, -0.9540000000000001, -0.17400000000000002, 192.0, 0.0, 0.0, 0.0, 0.0, 0.0, 0.0, 0.0, 0.0, 0.0, 1.677704198501842E9, 0.0, 2023-03-01 12:56:38.501
63.0, 15861.557824797372, 19577.691802703357, 0.0, 0.0, 0.0, -187500.02235174447, -187500.02235174447, 0.0, 0.384, -0.9540000000000001, -0.17400000000000002, 192.0, 0.0, 0.0, 0.0, 0.0, 0.0, 0.0, 0.0, 0.0, 0.0, 1.677704198501859E9, 0.0, 2023-03-01 12:56:38.501
64.0, 15867.816313244859, 19584.889064417966, 0.0, 0.0, 0.0, -187500.02235174447, -187500.02235174447, 0.0, 0.384, -0.9540000000000001, -0.17400000000000002, 192.0, 0.0, 0.0, 0.0, 0.0, 0.0, 0.0, 0.0, 0.0, 0.0, 1.677704198509848E9, 0.0, 2023-03-01 12:56:38.509
65.0, 15882.0990779518, 19596.959006423833, 0.0, 0.0, 0.0, -187500.02235174447, -187500.02235174447, 0.0, 0.384, -0.9540000000000001, -0.17400000000000002, 192.0, 0.0, 0.0, 0.0, 0.0, 0.0, 0.0, 0.0, 0.0, 0.0, 1.677704198509863E9, 0.0, 2023-03-01 12:56:38.509
66.0, 15871.660813291172, 19578.20589282583, 0.0, 0.0, 0.0, -187500.02235174447, -187500.02235174447, 0.0, 0.38, -0.9520000000000001, -0.178, 192.0, 11.0, 224.0, 226.0, 64.0, 250.0, 112.0, 0.0, 0.0, 0.0, 1.677704198516982E9, 0.0, 2023-03-01 12:56:38.516
67.0, 15852.460664804063, 19563.58785195206, 0.0, 0.0, 0.0, -187500.02235174447, -187500.02235174447, 0.0, 0.38, -0.9520000000000001, -0.178, 192.0, 0.0, 0.0, 0.0, 0.0, 0.0, 0.0, 0.0, 0.0, 0.0, 1.677704198516999E9, 0.0, 2023-03-01 12:56:38.516
68.0, 15853.064161904356, 19576.21658756931, 0.0, 0.0, 0.0, -187500.02235174447, -187500.02235174447, 0.0, 0.38, -0.9520000000000001, -0.178, 192.0, 0.0, 0.0, 0.0, 0.0, 0.0, 0.0, 0.0, 0.0, 0.0, 1.677704198524501E9, 0.0, 2023-03-01 12:56:38.524
69.0, 15854.092342149299, 19578.854093415033, 0.0, 0.0, 0.0, -187500.02235174447, -187500.02235174447, 0.0, 0.38, -0.9520000000000001, -0.178, 192.0, 0.0, 0.0, 0.0, 0.0, 0.0, 0.0, 0.0, 0.0, 0.0, 1.677704198524515E9, 0.0, 2023-03-01 12:56:38.524
70.0, 15843.542318766395, 19573.422619512396, 0.0, 0.0, 0.0, -187500.02235174447, -187500.02235174447, 0.0, 0.38, -0.9520000000000001, -0.178, 192.0, 0.0, 0.0, 0.0, 0.0, 0.0, 0.0, 0.0, 0.0, 0.0, 1.677704198531544E9, 0.0, 2023-03-01 12:56:38.531
71.0, 15840.435426287107, 19568.415828754405, 0.0, 0.0, 0.0, -187500.02235174447, -187500.02235174447, 0.0, 0.38, -0.9520000000000001, -0.178, 192.0, 0.0, 0.0, 0.0, 0.0, 0.0, 0.0, 0.0, 0.0, 0.0, 1.677704198539532E9, 0.0, 2023-03-01 12:56:38.539
72.0, 15839.60841174226, 19570.986279366767, 0.0, 0.0, 0.0, -187500.02235174447, -187500.02235174447, 0.0, 0.38, -0.9520000000000001, -0.178, 192.0, 0.0, 0.0, 0.0, 0.0, 0.0, 0.0, 0.0, 0.0, 0.0, 1.677704198539541E9, 0.0, 2023-03-01 12:56:38.539
73.0, 15839.586059997806, 19573.333212534573, 0.0, 0.0, 0.0, -187500.02235174447, -187500.02235174447, 0.0, 0.38, -0.9520000000000001, -0.178, 192.0, 0.0, 0.0, 0.0, 0.0, 0.0, 0.0, 0.0, 0.0, 0.0, 1.677704198546682E9, 0.0, 2023-03-01 12:56:38.546
74.0, 15841.932993165612, 19569.041677599154, 0.0, 0.0, 0.0, -187500.02235174447, -187500.02235174447, 0.0, 0.38, -0.9520000000000001, -0.178, 192.0, 0.0, 0.0, 0.0, 0.0, 0.0, 0.0, 0.0, 0.0, 0.0, 1.677704198546698E9, 0.0, 2023-03-01 12:56:38.546
75.0, 15843.542318766395, 19568.39347700995, 0.0, 0.0, 0.0, -187500.02235174447, -187500.02235174447, 0.0, 0.38, -0.9520000000000001, -0.178, 192.0, 0.0, 0.0, 0.0, 0.0, 0.0, 0.0, 0.0, 0.0, 0.0, 1.677704198554125E9, 0.0, 2023-03-01 12:56:38.554
76.0, 15841.195385598587, 19568.907567132424, 0.0, 0.0, 0.0, -187500.02235174447, -187500.02235174447, 0.0, 0.378, -0.962, -0.178, 192.0, 11.0, 208.0, 225.0, 240.0, 250.0, 112.0, 0.0, 0.0, 0.0, 1.677704198554139E9, 0.0, 2023-03-01 12:56:38.554
77.0, 15837.015609385446, 19569.376953765983, 0.0, 0.0, 0.0, -187500.02235174447, -187500.02235174447, 0.0, 0.378, -0.962, -0.178, 192.0, 0.0, 0.0, 0.0, 0.0, 0.0, 0.0, 0.0, 0.0, 0.0, 1.677704198562091E9, 0.0, 2023-03-01 12:56:38.562
78.0, 15835.160414595655, 19567.9687938653, 0.0, 0.0, 0.0, -187500.02235174447, -187500.02235174447, 0.0, 0.378, -0.962, -0.178, 192.0, 0.0, 0.0, 0.0, 0.0, 0.0, 0.0, 0.0, 0.0, 0.0, 1.677704198562107E9, 0.0, 2023-03-01 12:56:38.562
79.0, 15838.691990219593, 19563.721962418793, 0.0, 0.0, 0.0, -187500.02235174447, -187500.02235174447, 0.0, 0.378, -0.962, -0.178, 192.0, 0.0, 0.0, 0.0, 0.0, 0.0, 0.0, 0.0, 0.0, 0.0, 1.677704198570155E9, 0.0, 2023-03-01 12:56:38.570
80.0, 15839.85428093127, 19558.53635770516, 0.0, 0.0, 0.0, -187500.02235174447, -187500.02235174447, 0.0, 0.378, -0.962, -0.178, 192.0, 0.0, 0.0, 0.0, 0.0, 0.0, 0.0, 0.0, 0.0, 0.0, 1.677704198570169E9, 0.0, 2023-03-01 12:56:38.570
81.0, 15845.79984495638, 19565.554805464126, 0.0, 0.0, 0.0, -187500.02235174447, -187500.02235174447, 0.0, 0.378, -0.962, -0.178, 192.0, 0.0, 0.0, 0.0, 0.0, 0.0, 0.0, 0.0, 0.0, 0.0, 1.677704198576733E9, 0.0, 2023-03-01 12:56:38.576
82.0, 15849.42082755814, 19568.482883987774, 0.0, 0.0, 0.0, -187500.02235174447, -187500.02235174447, 0.0, 0.378, -0.962, -0.178, 192.0, 0.0, 0.0, 0.0, 0.0, 0.0, 0.0, 0.0, 0.0, 0.0, 1.677704198576769E9, 0.0, 2023-03-01 12:56:38.576
83.0, 15852.840644459802, 19576.753029436237, 0.0, 0.0, 0.0, -187500.02235174447, -187500.02235174447, 0.0, 0.378, -0.962, -0.178, 192.0, 0.0, 0.0, 0.0, 0.0, 0.0, 0.0, 0.0, 0.0, 0.0, 1.677704198584769E9, 0.0, 2023-03-01 12:56:38.584
84.0, 15850.359600825263, 19575.367221280005, 0.0, 0.0, 0.0, -187500.02235174447, -187500.02235174447, 0.0, 0.378, -0.962, -0.178, 192.0, 0.0, 0.0, 0.0, 0.0, 0.0, 0.0, 0.0, 0.0, 0.0, 1.677704198584784E9, 0.0, 2023-03-01 12:56:38.584
85.0, 15852.974754926534, 19577.0212503697, 0.0, 0.0, 0.0, -187500.02235174447, -187500.02235174447, 0.0, 0.378, -0.962, -0.178, 192.0, 0.0, 0.0, 0.0, 0.0, 0.0, 0.0, 0.0, 0.0, 0.0, 1.67770419859172E9, 0.0, 2023-03-01 12:56:38.591
86.0, 15865.804656243881, 19579.524645748694, 0.0, 0.0, 0.0, -187500.02235174447, -187500.02235174447, 0.0, 0.378, -0.96, -0.186, 192.0, 11.0, 208.0, 226.0, 0.0, 250.0, 48.0, 0.0, 0.0, 0.0, 1.677704198599817E9, 0.0, 2023-03-01 12:56:38.599
87.0, 15854.51702529395, 19570.58394796657, 0.0, 0.0, 0.0, -187500.02235174447, -187500.02235174447, 0.0, 0.378, -0.96, -0.186, 192.0, 0.0, 0.0, 0.0, 0.0, 0.0, 0.0, 0.0, 0.0, 0.0, 1.677704198599837E9, 0.0, 2023-03-01 12:56:38.599
88.0, 15852.147740381688, 19571.03098285568, 0.0, 0.0, 0.0, -187500.02235174447, -187500.02235174447, 0.0, 0.378, -0.96, -0.186, 192.0, 0.0, 0.0, 0.0, 0.0, 0.0, 0.0, 0.0, 0.0, 0.0, 1.677704198606464E9, 0.0, 2023-03-01 12:56:38.606
89.0, 15855.90283345018, 19574.897834646446, 0.0, 0.0, 0.0, -187500.02235174447, -187500.02235174447, 0.0, 0.378, -0.96, -0.186, 192.0, 0.0, 0.0, 0.0, 0.0, 0.0, 0.0, 0.0, 0.0, 0.0, 1.677704198606479E9, 0.0, 2023-03-01 12:56:38.606
90.0, 15850.650173503182, 19576.64127071396, 0.0, 0.0, 0.0, -187500.02235174447, -187500.02235174447, 0.0, 0.378, -0.96, -0.186, 192.0, 0.0, 0.0, 0.0, 0.0, 0.0, 0.0, 0.0, 0.0, 0.0, 1.677704198614495E9, 0.0, 2023-03-01 12:56:38.614
91.0, 15849.80080721388, 19579.345831793053, 0.0, 0.0, 0.0, -187500.02235174447, -187500.02235174447, 0.0, 0.378, -0.96, -0.186, 192.0, 0.0, 0.0, 0.0, 0.0, 0.0, 0.0, 0.0, 0.0, 0.0, 1.677704198614509E9, 0.0, 2023-03-01 12:56:38.614
92.0, 15852.348906081786, 19577.289471303164, 0.0, 0.0, 0.0, -187500.02235174447, -187500.02235174447, 0.0, 0.378, -0.96, -0.186, 192.0, 0.0, 0.0, 0.0, 0.0, 0.0, 0.0, 0.0, 0.0, 0.0, 1.6777041986224E9, 0.0, 2023-03-01 12:56:38.622
93.0, 15849.33142058032, 19573.333212534573, 0.0, 0.0, 0.0, -187500.02235174447, -187500.02235174447, 0.0, 0.378, -0.96, -0.186, 192.0, 0.0, 0.0, 0.0, 0.0, 0.0, 0.0, 0.0, 0.0, 0.0, 1.67770419862241E9, 0.0, 2023-03-01 12:56:38.622
94.0, 15847.073894390332, 19567.767628165202, 0.0, 0.0, 0.0, -187500.02235174447, -187500.02235174447, 0.0, 0.378, -0.96, -0.186, 192.0, 0.0, 0.0, 0.0, 0.0, 0.0, 0.0, 0.0, 0.0, 0.0, 1.677704198629545E9, 0.0, 2023-03-01 12:56:38.629
95.0, 15842.067103632344, 19567.030020598177, 0.0, 0.0, 0.0, -187500.02235174447, -187500.02235174447, 0.0, 0.378, -0.96, -0.186, 192.0, 0.0, 0.0, 0.0, 0.0, 0.0, 0.0, 0.0, 0.0, 0.0, 1.677704198629564E9, 0.0, 2023-03-01 12:56:38.629
96.0, 15841.37419955423, 19572.774418923193, 0.0, 0.0, 0.0, -187500.02235174447, -187500.02235174447, 0.0, 0.376, -0.9560000000000001, -0.186, 192.0, 11.0, 192.0, 226.0, 32.0, 250.0, 48.0, 0.0, 0.0, 0.0, 1.677704198637062E9, 0.0, 2023-03-01 12:56:38.637
97.0, 15841.195385598587, 19568.505235732227, 0.0, 0.0, 0.0, -187500.02235174447, -187500.02235174447, 0.0, 0.376, -0.9560000000000001, -0.186, 192.0, 0.0, 0.0, 0.0, 0.0, 0.0, 0.0, 0.0, 0.0, 0.0, 1.677704198637079E9, 0.0, 2023-03-01 12:56:38.637
98.0, 15845.464568789552, 19566.381820008974, 0.0, 0.0, 0.0, -187500.02235174447, -187500.02235174447, 0.0, 0.376, -0.9560000000000001, -0.186, 192.0, 0.0, 0.0, 0.0, 0.0, 0.0, 0.0, 0.0, 0.0, 0.0, 1.677704198645098E9, 0.0, 2023-03-01 12:56:38.645
99.0, 15851.454836303574, 19570.919224133402, 0.0, 0.0, 0.0, -187500.02235174447, -187500.02235174447, 0.0, 0.376, -0.9560000000000001, -0.186, 192.0, 0.0, 0.0, 0.0, 0.0, 0.0, 0.0, 0.0, 0.0, 0.0, 1.677704198645116E9, 0.0, 2023-03-01 12:56:38.645
100.0, 15853.555900282372, 19571.276852044684, 0.0, 0.0, 0.0, -187500.02235174447, -187500.02235174447, 0.0, 0.376, -0.9560000000000001, -0.186, 192.0, 0.0, 0.0, 0.0, 0.0, 0.0, 0.0, 0.0, 0.0, 0.0, 1.677704198652194E9, 0.0, 2023-03-01 12:56:38.652
101.0, 15848.258536846464, 19563.45374148533, 0.0, 0.0, 0.0, -187500.02235174447, -187500.02235174447, 0.0, 0.376, -0.9560000000000001, -0.186, 192.0, 0.0, 0.0, 0.0, 0.0, 0.0, 0.0, 0.0, 0.0, 0.0, 1.677704198658721E9, 0.0, 2023-03-01 12:56:38.658
102.0, 15850.493711291994, 19564.25840428572, 0.0, 0.0, 0.0, -187500.02235174447, -187500.02235174447, 0.0, 0.376, -0.9560000000000001, -0.186, 192.0, 0.0, 0.0, 0.0, 0.0, 0.0, 0.0, 0.0, 0.0, 0.0, 1.677704198658742E9, 0.0, 2023-03-01 12:56:38.658
103.0, 15848.571461268839, 19562.939651362856, 0.0, 0.0, 0.0, -187500.02235174447, -187500.02235174447, 0.0, 0.376, -0.9560000000000001, -0.186, 192.0, 0.0, 0.0, 0.0, 0.0, 0.0, 0.0, 0.0, 0.0, 0.0, 1.677704198666648E9, 0.0, 2023-03-01 12:56:38.666
104.0, 15846.448045545585, 19565.39834325294, 0.0, 0.0, 0.0, -187500.02235174447, -187500.02235174447, 0.0, 0.376, -0.9560000000000001, -0.186, 192.0, 0.0, 0.0, 0.0, 0.0, 0.0, 0.0, 0.0, 0.0, 0.0, 1.677704198666657E9, 0.0, 2023-03-01 12:56:38.666
105.0, 15845.956307167568, 19572.975584623287, 0.0, 0.0, 0.0, -187500.02235174447, -187500.02235174447, 0.0, 0.376, -0.9560000000000001, -0.186, 192.0, 0.0, 0.0, 0.0, 0.0, 0.0, 0.0, 0.0, 0.0, 0.0, 1.677704198676183E9, 0.0, 2023-03-01 12:56:38.676
106.0, 15843.050580388377, 19571.16509332241, 0.0, 0.0, 0.0, -187500.02235174447, -187500.02235174447, 0.0, 0.378, -0.964, -0.184, 192.0, 11.0, 208.0, 225.0, 224.0, 250.0, 64.0, 0.0, 0.0, 0.0, 1.677704198676198E9, 0.0, 2023-03-01 12:56:38.676
107.0, 15845.486920534006, 19566.337116520062, 0.0, 0.0, 0.0, -187500.02235174447, -187500.02235174447, 0.0, 0.378, -0.964, -0.184, 192.0, 0.0, 0.0, 0.0, 0.0, 0.0, 0.0, 0.0, 0.0, 0.0, 1.677704198682283E9, 0.0, 2023-03-01 12:56:38.682
108.0, 15848.973792669034, 19563.543148463148, 0.0, 0.0, 0.0, -187500.02235174447, -187500.02235174447, 0.0, 0.378, -0.964, -0.184, 192.0, 0.0, 0.0, 0.0, 0.0, 0.0, 0.0, 0.0, 0.0, 0.0, 1.67770419868231E9, 0.0, 2023-03-01 12:56:38.682
109.0, 15844.838719944803, 19560.54801470614, 0.0, 0.0, 0.0, -187500.02235174447, -187500.02235174447, 0.0, 0.378, -0.964, -0.184, 192.0, 0.0, 0.0, 0.0, 0.0, 0.0, 0.0, 0.0, 0.0, 0.0, 1.67770419868923E9, 0.0, 2023-03-01 12:56:38.689
110.0, 15851.611298514761, 19568.52758747668, 0.0, 0.0, 0.0, -187500.02235174447, -187500.02235174447, 0.0, 0.378, -0.964, -0.184, 192.0, 0.0, 0.0, 0.0, 0.0, 0.0, 0.0, 0.0, 0.0, 0.0, 1.677704198689248E9, 0.0, 2023-03-01 12:56:38.689
111.0, 15853.399438071185, 19574.473151501796, 0.0, 0.0, 0.0, -187500.02235174447, -187500.02235174447, 0.0, 0.378, -0.964, -0.184, 192.0, 0.0, 0.0, 0.0, 0.0, 0.0, 0.0, 0.0, 0.0, 0.0, 1.67770419869723E9, 0.0, 2023-03-01 12:56:38.697
112.0, 15853.064161904356, 19574.11552359051, 0.0, 0.0, 0.0, -187500.02235174447, -187500.02235174447, 0.0, 0.378, -0.964, -0.184, 192.0, 0.0, 0.0, 0.0, 0.0, 0.0, 0.0, 0.0, 0.0, 0.0, 1.677704198697244E9, 0.0, 2023-03-01 12:56:38.697
113.0, 15853.622955515739, 19569.846340399545, 0.0, 0.0, 0.0, -187500.02235174447, -187500.02235174447, 0.0, 0.378, -0.964, -0.184, 192.0, 0.0, 0.0, 0.0, 0.0, 0.0, 0.0, 0.0, 0.0, 0.0, 1.677704198705278E9, 0.0, 2023-03-01 12:56:38.705
114.0, 15855.008763671967, 19576.618918969503, 0.0, 0.0, 0.0, -187500.02235174447, -187500.02235174447, 0.0, 0.378, -0.964, -0.184, 192.0, 0.0, 0.0, 0.0, 0.0, 0.0, 0.0, 0.0, 0.0, 0.0, 1.677704198705291E9, 0.0, 2023-03-01 12:56:38.705
115.0, 15849.71140023606, 19579.524645748694, 0.0, 0.0, 0.0, -187500.02235174447, -187500.02235174447, 0.0, 0.378, -0.964, -0.184, 192.0, 0.0, 0.0, 0.0, 0.0, 0.0, 0.0, 0.0, 0.0, 0.0, 1.677704198711369E9, 0.0, 2023-03-01 12:56:38.711
116.0, 15851.454836303574, 19578.58587248157, 0.0, 0.0, 0.0, -187500.02235174447, -187500.02235174447, 0.0, 0.378, -0.966, -0.178, 192.0, 11.0, 208.0, 225.0, 208.0, 250.0, 112.0, 0.0, 0.0, 0.0, 1.677704198711378E9, 0.0, 2023-03-01 12:56:38.711
117.0, 15851.18661537011, 19576.97654688079, 0.0, 0.0, 0.0, -187500.02235174447, -187500.02235174447, 0.0, 0.378, -0.966, -0.178, 192.0, 0.0, 0.0, 0.0, 0.0, 0.0, 0.0, 0.0, 0.0, 0.0, 1.677704198718944E9, 0.0, 2023-03-01 12:56:38.718
118.0, 15845.688086234104, 19571.075686344586, 0.0, 0.0, 0.0, -187500.02235174447, -187500.02235174447, 0.0, 0.378, -0.966, -0.178, 192.0, 0.0, 0.0, 0.0, 0.0, 0.0, 0.0, 0.0, 0.0, 0.0, 1.677704198728259E9, 0.0, 2023-03-01 12:56:38.728
119.0, 15847.364467068252, 19573.601433468037, 0.0, 0.0, 0.0, -187500.02235174447, -187500.02235174447, 0.0, 0.378, -0.966, -0.178, 192.0, 0.0, 0.0, 0.0, 0.0, 0.0, 0.0, 0.0, 0.0, 0.0, 1.677704198728274E9, 0.0, 2023-03-01 12:56:38.728
120.0, 15847.56563276835, 19569.82398865509, 0.0, 0.0, 0.0, -187500.02235174447, -187500.02235174447, 0.0, 0.378, -0.966, -0.178, 192.0, 0.0, 0.0, 0.0, 0.0, 0.0, 0.0, 0.0, 0.0, 0.0, 1.677704198735447E9, 0.0, 2023-03-01 12:56:38.735
121.0, 15849.644345002693, 19572.595604967548, 0.0, 0.0, 0.0, -187500.02235174447, -187500.02235174447, 0.0, 0.378, -0.966, -0.178, 192.0, 0.0, 0.0, 0.0, 0.0, 0.0, 0.0, 0.0, 0.0, 0.0, 1.677704198735462E9, 0.0, 2023-03-01 12:56:38.735
122.0, 15852.035981659412, 19575.814256169113, 0.0, 0.0, 0.0, -187500.02235174447, -187500.02235174447, 0.0, 0.378, -0.966, -0.178, 192.0, 0.0, 0.0, 0.0, 0.0, 0.0, 0.0, 0.0, 0.0, 0.0, 1.677704198741492E9, 0.0, 2023-03-01 12:56:38.741
123.0, 15853.51119679346, 19575.50133174674, 0.0, 0.0, 0.0, -187500.02235174447, -187500.02235174447, 0.0, 0.378, -0.966, -0.178, 192.0, 0.0, 0.0, 0.0, 0.0, 0.0, 0.0, 0.0, 0.0, 0.0, 1.677704198741501E9, 0.0, 2023-03-01 12:56:38.741
124.0, 15845.151644367177, 19573.802599168135, 0.0, 0.0, 0.0, -187500.02235174447, -187500.02235174447, 0.0, 0.378, -0.966, -0.178, 192.0, 0.0, 0.0, 0.0, 0.0, 0.0, 0.0, 0.0, 0.0, 0.0, 1.677704198749503E9, 0.0, 2023-03-01 12:56:38.749
125.0, 15840.480129776017, 19566.091247331053, 0.0, 0.0, 0.0, -187500.02235174447, -187500.02235174447, 0.0, 0.378, -0.966, -0.178, 192.0, 0.0, 0.0, 0.0, 0.0, 0.0, 0.0, 0.0, 0.0, 0.0, 1.677704198749517E9, 0.0, 2023-03-01 12:56:38.749
126.0, 15838.244955330487, 19562.15734030692, 0.0, 0.0, 0.0, -187500.02235174447, -187500.02235174447, 0.0, 0.378, -0.966, -0.178, 192.0, 0.0, 0.0, 0.0, 0.0, 0.0, 0.0, 0.0, 0.0, 0.0, 1.677704198757488E9, 0.0, 2023-03-01 12:56:38.757
127.0, 15843.832891444314, 19565.934785119865, 0.0, 0.0, 0.0, -187500.02235174447, -187500.02235174447, 0.0, 0.38, -0.9580000000000001, -0.188, 192.0, 11.0, 224.0, 226.0, 16.0, 250.0, 32.0, 0.0, 0.0, 0.0, 1.677704198757496E9, 0.0, 2023-03-01 12:56:38.757
128.0, 15840.189557098098, 19562.76083740721, 0.0, 0.0, 0.0, -187500.02235174447, -187500.02235174447, 0.0, 0.38, -0.9580000000000001, -0.188, 192.0, 0.0, 0.0, 0.0, 0.0, 0.0, 0.0, 0.0, 0.0, 0.0, 1.677704198764576E9, 0.0, 2023-03-01 12:56:38.764
129.0, 15842.603545499273, 19563.565500207606, 0.0, 0.0, 0.0, -187500.02235174447, -187500.02235174447, 0.0, 0.38, -0.9580000000000001, -0.188, 192.0, 0.0, 0.0, 0.0, 0.0, 0.0, 0.0, 0.0, 0.0, 0.0, 1.677704198764596E9, 0.0, 2023-03-01 12:56:38.764
130.0, 15845.062237389355, 19563.297279274142, 0.0, 0.0, 0.0, -187500.02235174447, -187500.02235174447, 0.0, 0.38, -0.9580000000000001, -0.188, 192.0, 0.0, 0.0, 0.0, 0.0, 0.0, 0.0, 0.0, 0.0, 0.0, 1.677704198772149E9, 0.0, 2023-03-01 12:56:38.772
131.0, 15840.390722798196, 19560.52566296168, 0.0, 0.0, 0.0, -187500.02235174447, -187500.02235174447, 0.0, 0.38, -0.9580000000000001, -0.188, 192.0, 0.0, 0.0, 0.0, 0.0, 0.0, 0.0, 0.0, 0.0, 0.0, 1.677704198772183E9, 0.0, 2023-03-01 12:56:38.772
132.0, 15833.729902950516, 19560.235090283764, 0.0, 0.0, 0.0, -187500.02235174447, -187500.02235174447, 0.0, 0.38, -0.9580000000000001, -0.188, 192.0, 0.0, 0.0, 0.0, 0.0, 0.0, 0.0, 0.0, 0.0, 0.0, 1.677704198779135E9, 0.0, 2023-03-01 12:56:38.779
133.0, 15830.243030815487, 19561.17386355089, 0.0, 0.0, 0.0, -187500.02235174447, -187500.02235174447, 0.0, 0.38, -0.9580000000000001, -0.188, 192.0, 0.0, 0.0, 0.0, 0.0, 0.0, 0.0, 0.0, 0.0, 0.0, 1.677704198787242E9, 0.0, 2023-03-01 12:56:38.787
134.0, 15832.053522116366, 19555.83179662607, 0.0, 0.0, 0.0, -187500.02235174447, -187500.02235174447, 0.0, 0.38, -0.9580000000000001, -0.188, 192.0, 0.0, 0.0, 0.0, 0.0, 0.0, 0.0, 0.0, 0.0, 0.0, 1.677704198787253E9, 0.0, 2023-03-01 12:56:38.787
135.0, 15833.28286806141, 19556.59175593755, 0.0, 0.0, 0.0, -187500.02235174447, -187500.02235174447, 0.0, 0.38, -0.9580000000000001, -0.188, 192.0, 0.0, 0.0, 0.0, 0.0, 0.0, 0.0, 0.0, 0.0, 0.0, 1.677704198794346E9, 0.0, 2023-03-01 12:56:38.794
136.0, 15841.0389233874, 19558.73752340526, 0.0, 0.0, 0.0, -187500.02235174447, -187500.02235174447, 0.0, 0.38, -0.9580000000000001, -0.188, 192.0, 0.0, 0.0, 0.0, 0.0, 0.0, 0.0, 0.0, 0.0, 0.0, 1.67770419879436E9, 0.0, 2023-03-01 12:56:38.794
137.0, 15835.450987273574, 19552.568441935593, 0.0, 0.0, 0.0, -187500.02235174447, -187500.02235174447, 0.0, 0.388, -0.9580000000000001, -0.186, 192.0, 12.0, 32.0, 226.0, 16.0, 250.0, 48.0, 0.0, 0.0, 0.0, 1.677704198803229E9, 0.0, 2023-03-01 12:56:38.803
138.0, 15835.22746982902, 19555.16124429241, 0.0, 0.0, 0.0, -187500.02235174447, -187500.02235174447, 0.0, 0.388, -0.9580000000000001, -0.186, 192.0, 0.0, 0.0, 0.0, 0.0, 0.0, 0.0, 0.0, 0.0, 0.0, 1.677704198803239E9, 0.0, 2023-03-01 12:56:38.803
139.0, 15830.578306982317, 19553.663677413904, 0.0, 0.0, 0.0, -187500.02235174447, -187500.02235174447, 0.0, 0.388, -0.9580000000000001, -0.186, 192.0, 0.0, 0.0, 0.0, 0.0, 0.0, 0.0, 0.0, 0.0, 0.0, 1.677704198809851E9, 0.0, 2023-03-01 12:56:38.809
140.0, 15824.543335979384, 19555.45181697033, 0.0, 0.0, 0.0, -187500.02235174447, -187500.02235174447, 0.0, 0.388, -0.9580000000000001, -0.186, 192.0, 0.0, 0.0, 0.0, 0.0, 0.0, 0.0, 0.0, 0.0, 0.0, 1.677704198809872E9, 0.0, 2023-03-01 12:56:38.809
141.0, 15823.157527823154, 19555.429465225872, 0.0, 0.0, 0.0, -187500.02235174447, -187500.02235174447, 0.0, 0.388, -0.9580000000000001, -0.186, 192.0, 0.0, 0.0, 0.0, 0.0, 0.0, 0.0, 0.0, 0.0, 0.0, 1.677704198816904E9, 0.0, 2023-03-01 12:56:38.816
142.0, 15837.350885552274, 19563.7666659077, 0.0, 0.0, 0.0, -187500.02235174447, -187500.02235174447, 0.0, 0.388, -0.9580000000000001, -0.186, 192.0, 0.0, 0.0, 0.0, 0.0, 0.0, 0.0, 0.0, 0.0, 0.0, 1.67770419881692E9, 0.0, 2023-03-01 12:56:38.816
143.0, 15841.262440831953, 19565.465398486307, 0.0, 0.0, 0.0, -187500.02235174447, -187500.02235174447, 0.0, 0.388, -0.9580000000000001, -0.186, 192.0, 0.0, 0.0, 0.0, 0.0, 0.0, 0.0, 0.0, 0.0, 0.0, 1.67770419882441E9, 0.0, 2023-03-01 12:56:38.824
144.0, 15847.856205446269, 19573.69084044586, 0.0, 0.0, 0.0, -187500.02235174447, -187500.02235174447, 0.0, 0.388, -0.9580000000000001, -0.186, 192.0, 0.0, 0.0, 0.0, 0.0, 0.0, 0.0, 0.0, 0.0, 0.0, 1.677704198824425E9, 0.0, 2023-03-01 12:56:38.824
145.0, 15844.99518215599, 19570.986279366767, 0.0, 0.0, 0.0, -187500.02235174447, -187500.02235174447, 0.0, 0.388, -0.9580000000000001, -0.186, 192.0, 0.0, 0.0, 0.0, 0.0, 0.0, 0.0, 0.0, 0.0, 0.0, 1.677704198832404E9, 0.0, 2023-03-01 12:56:38.832
146.0, 15839.988391398001, 19568.14760782094, 0.0, 0.0, 0.0, -187500.02235174447, -187500.02235174447, 0.0, 0.388, -0.9580000000000001, -0.186, 192.0, 0.0, 0.0, 0.0, 0.0, 0.0, 0.0, 0.0, 0.0, 0.0, 1.677704198832416E9, 0.0, 2023-03-01 12:56:38.832
147.0, 15841.597716998784, 19566.761799664713, 0.0, 0.0, 0.0, -187500.02235174447, -187500.02235174447, 0.0, 0.392, -0.9580000000000001, -0.182, 192.0, 12.0, 64.0, 226.0, 16.0, 250.0, 80.0, 0.0, 0.0, 0.0, 1.677704198839547E9, 0.0, 2023-03-01 12:56:38.839
148.0, 15842.558842010361, 19566.67239268689, 0.0, 0.0, 0.0, -187500.02235174447, -187500.02235174447, 0.0, 0.392, -0.9580000000000001, -0.182, 192.0, 0.0, 0.0, 0.0, 0.0, 0.0, 0.0, 0.0, 0.0, 0.0, 1.677704198846634E9, 0.0, 2023-03-01 12:56:38.846
149.0, 15837.239126829998, 19567.074724087088, 0.0, 0.0, 0.0, -187500.02235174447, -187500.02235174447, 0.0, 0.392, -0.9580000000000001, -0.182, 192.0, 0.0, 0.0, 0.0, 0.0, 0.0, 0.0, 0.0, 0.0, 0.0, 1.677704198846642E9, 0.0, 2023-03-01 12:56:38.846
150.0, 15837.842623930292, 19570.315727033107, 0.0, 0.0, 0.0, -187500.02235174447, -187500.02235174447, 0.0, 0.392, -0.9580000000000001, -0.182, 192.0, 0.0, 0.0, 0.0, 0.0, 0.0, 0.0, 0.0, 0.0, 0.0, 1.67770419885407E9, 0.0, 2023-03-01 12:56:38.854
151.0, 15844.145815866688, 19579.01055562622, 0.0, 0.0, 0.0, -187500.02235174447, -187500.02235174447, 0.0, 0.392, -0.9580000000000001, -0.182, 192.0, 0.0, 0.0, 0.0, 0.0, 0.0, 0.0, 0.0, 0.0, 0.0, 1.677704198854089E9, 0.0, 2023-03-01 12:56:38.854
152.0, 15838.066141374844, 19572.237977056262, 0.0, 0.0, 0.0, -187500.02235174447, -187500.02235174447, 0.0, 0.392, -0.9580000000000001, -0.182, 192.0, 0.0, 0.0, 0.0, 0.0, 0.0, 0.0, 0.0, 0.0, 0.0, 1.67770419886203E9, 0.0, 2023-03-01 12:56:38.862
153.0, 15841.530661765417, 19572.707363689824, 0.0, 0.0, 0.0, -187500.02235174447, -187500.02235174447, 0.0, 0.392, -0.9580000000000001, -0.182, 192.0, 0.0, 0.0, 0.0, 0.0, 0.0, 0.0, 0.0, 0.0, 0.0, 1.677704198862047E9, 0.0, 2023-03-01 12:56:38.862
154.0, 15841.016571642946, 19567.67822118738, 0.0, 0.0, 0.0, -187500.02235174447, -187500.02235174447, 0.0, 0.392, -0.9580000000000001, -0.182, 192.0, 0.0, 0.0, 0.0, 0.0, 0.0, 0.0, 0.0, 0.0, 0.0, 1.677704198870073E9, 0.0, 2023-03-01 12:56:38.870
155.0, 15832.724074450027, 19555.183596036863, 0.0, 0.0, 0.0, -187500.02235174447, -187500.02235174447, 0.0, 0.392, -0.9580000000000001, -0.182, 192.0, 0.0, 0.0, 0.0, 0.0, 0.0, 0.0, 0.0, 0.0, 0.0, 1.677704198870089E9, 0.0, 2023-03-01 12:56:38.870
156.0, 15833.528737250417, 19555.9659070928, 0.0, 0.0, 0.0, -187500.02235174447, -187500.02235174447, 0.0, 0.392, -0.9580000000000001, -0.182, 192.0, 0.0, 0.0, 0.0, 0.0, 0.0, 0.0, 0.0, 0.0, 0.0, 1.677704198876671E9, 0.0, 2023-03-01 12:56:38.876
157.0, 15834.534565750906, 19561.375029250983, 0.0, 0.0, 0.0, -187500.02235174447, -187500.02235174447, 0.0, 0.394, -0.9580000000000001, -0.182, 192.0, 12.0, 80.0, 226.0, 16.0, 250.0, 80.0, 0.0, 0.0, 0.0, 1.677704198876683E9, 0.0, 2023-03-01 12:56:38.876
158.0, 15827.963152881046, 19555.16124429241, 0.0, 0.0, 0.0, -187500.02235174447, -187500.02235174447, 0.0, 0.394, -0.9580000000000001, -0.182, 192.0, 0.0, 0.0, 0.0, 0.0, 0.0, 0.0, 0.0, 0.0, 0.0, 1.677704198884674E9, 0.0, 2023-03-01 12:56:38.884
159.0, 15831.919411649635, 19554.311878003107, 0.0, 0.0, 0.0, -187500.02235174447, -187500.02235174447, 0.0, 0.394, -0.9580000000000001, -0.182, 192.0, 0.0, 0.0, 0.0, 0.0, 0.0, 0.0, 0.0, 0.0, 0.0, 1.677704198884685E9, 0.0, 2023-03-01 12:56:38.884
160.0, 15828.253725558965, 19556.412941981907, 0.0, 0.0, 0.0, -187500.02235174447, -187500.02235174447, 0.0, 0.394, -0.9580000000000001, -0.182, 192.0, 0.0, 0.0, 0.0, 0.0, 0.0, 0.0, 0.0, 0.0, 0.0, 1.677704198892705E9, 0.0, 2023-03-01 12:56:38.892
161.0, 15832.99229538349, 19560.212738539307, 0.0, 0.0, 0.0, -187500.02235174447, -187500.02235174447, 0.0, 0.394, -0.9580000000000001, -0.182, 192.0, 0.0, 0.0, 0.0, 0.0, 0.0, 0.0, 0.0, 0.0, 0.0, 1.677704198892714E9, 0.0, 2023-03-01 12:56:38.892
162.0, 15825.347998779775, 19554.133064047466, 0.0, 0.0, 0.0, -187500.02235174447, -187500.02235174447, 0.0, 0.394, -0.9580000000000001, -0.182, 192.0, 0.0, 0.0, 0.0, 0.0, 0.0, 0.0, 0.0, 0.0, 0.0, 1.677704198899977E9, 0.0, 2023-03-01 12:56:38.899
163.0, 15824.900963890668, 19547.651058155425, 0.0, 0.0, 0.0, -187500.02235174447, -187500.02235174447, 0.0, 0.394, -0.9580000000000001, -0.182, 192.0, 0.0, 0.0, 0.0, 0.0, 0.0, 0.0, 0.0, 0.0, 0.0, 1.677704198906392E9, 0.0, 2023-03-01 12:56:38.906
164.0, 15821.302333033364, 19544.834738354057, 0.0, 0.0, 0.0, -187500.02235174447, -187500.02235174447, 0.0, 0.394, -0.9580000000000001, -0.182, 192.0, 0.0, 0.0, 0.0, 0.0, 0.0, 0.0, 0.0, 0.0, 0.0, 1.677704198906407E9, 0.0, 2023-03-01 12:56:38.906
165.0, 15819.782414410403, 19544.92414533188, 0.0, 0.0, 0.0, -187500.02235174447, -187500.02235174447, 0.0, 0.394, -0.9580000000000001, -0.182, 192.0, 0.0, 0.0, 0.0, 0.0, 0.0, 0.0, 0.0, 0.0, 0.0, 1.677704198914443E9, 0.0, 2023-03-01 12:56:38.914
166.0, 15818.240144042988, 19542.19723250833, 0.0, 0.0, 0.0, -187500.02235174447, -187500.02235174447, 0.0, 0.394, -0.9580000000000001, -0.182, 192.0, 0.0, 0.0, 0.0, 0.0, 0.0, 0.0, 0.0, 0.0, 0.0, 1.677704198914474E9, 0.0, 2023-03-01 12:56:38.914
167.0, 15818.865992887735, 19547.114616288498, 0.0, 0.0, 0.0, -187500.02235174447, -187500.02235174447, 0.0, 0.392, -0.9580000000000001, -0.176, 192.0, 12.0, 64.0, 226.0, 16.0, 250.0, 128.0, 0.0, 0.0, 0.0, 1.677704198922452E9, 0.0, 2023-03-01 12:56:38.922
168.0, 15824.051597601367, 19548.746293633736, 0.0, 0.0, 0.0, -187500.02235174447, -187500.02235174447, 0.0, 0.392, -0.9580000000000001, -0.176, 192.0, 0.0, 0.0, 0.0, 0.0, 0.0, 0.0, 0.0, 0.0, 0.0, 1.677704198922464E9, 0.0, 2023-03-01 12:56:38.922
169.0, 15820.900001633168, 19543.87361334248, 0.0, 0.0, 0.0, -187500.02235174447, -187500.02235174447, 0.0, 0.392, -0.9580000000000001, -0.176, 192.0, 0.0, 0.0, 0.0, 0.0, 0.0, 0.0, 0.0, 0.0, 0.0, 1.677704198929615E9, 0.0, 2023-03-01 12:56:38.929
170.0, 15816.362597508742, 19542.420749952886, 0.0, 0.0, 0.0, -187500.02235174447, -187500.02235174447, 0.0, 0.392, -0.9580000000000001, -0.176, 192.0, 0.0, 0.0, 0.0, 0.0, 0.0, 0.0, 0.0, 0.0, 0.0, 1.677704198929624E9, 0.0, 2023-03-01 12:56:38.929
171.0, 15811.9816555955, 19536.00579929421, 0.0, 0.0, 0.0, -187500.02235174447, -187500.02235174447, 0.0, 0.392, -0.9580000000000001, -0.176, 192.0, 0.0, 0.0, 0.0, 0.0, 0.0, 0.0, 0.0, 0.0, 0.0, 1.677704198937024E9, 0.0, 2023-03-01 12:56:38.937
172.0, 15818.46366148754, 19536.832813839057, 0.0, 0.0, 0.0, -187500.02235174447, -187500.02235174447, 0.0, 0.392, -0.9580000000000001, -0.176, 192.0, 0.0, 0.0, 0.0, 0.0, 0.0, 0.0, 0.0, 0.0, 0.0, 1.677704198937035E9, 0.0, 2023-03-01 12:56:38.937
173.0, 15820.967056866535, 19538.28567722865, 0.0, 0.0, 0.0, -187500.02235174447, -187500.02235174447, 0.0, 0.392, -0.9580000000000001, -0.176, 192.0, 0.0, 0.0, 0.0, 0.0, 0.0, 0.0, 0.0, 0.0, 0.0, 1.67770419894506E9, 0.0, 2023-03-01 12:56:38.945
174.0, 15819.737710921492, 19542.554860419616, 0.0, 0.0, 0.0, -187500.02235174447, -187500.02235174447, 0.0, 0.392, -0.9580000000000001, -0.176, 192.0, 0.0, 0.0, 0.0, 0.0, 0.0, 0.0, 0.0, 0.0, 0.0, 1.677704198945078E9, 0.0, 2023-03-01 12:56:38.945
175.0, 15818.709530676548, 19538.665656884394, 0.0, 0.0, 0.0, -187500.02235174447, -187500.02235174447, 0.0, 0.392, -0.9580000000000001, -0.176, 192.0, 0.0, 0.0, 0.0, 0.0, 0.0, 0.0, 0.0, 0.0, 0.0, 1.677704198953068E9, 0.0, 2023-03-01 12:56:38.953
176.0, 15823.090472589789, 19540.25263074072, 0.0, 0.0, 0.0, -187500.02235174447, -187500.02235174447, 0.0, 0.392, -0.9580000000000001, -0.176, 192.0, 0.0, 0.0, 0.0, 0.0, 0.0, 0.0, 0.0, 0.0, 0.0, 1.677704198953087E9, 0.0, 2023-03-01 12:56:38.953
177.0, 15817.346074264775, 19536.944572561333, 0.0, 0.0, 0.0, -187500.02235174447, -187500.02235174447, 0.0, 0.392, -0.9560000000000001, -0.178, 192.0, 12.0, 64.0, 226.0, 32.0, 250.0, 112.0, 0.0, 0.0, 0.0, 1.677704198959148E9, 0.0, 2023-03-01 12:56:38.959
178.0, 15813.054539329356, 19535.983447549756, 0.0, 0.0, 0.0, -187500.02235174447, -187500.02235174447, 0.0, 0.392, -0.9560000000000001, -0.178, 192.0, 0.0, 0.0, 0.0, 0.0, 0.0, 0.0, 0.0, 0.0, 0.0, 1.677704198959163E9, 0.0, 2023-03-01 12:56:38.959
179.0, 15812.473393973518, 19538.53154641766, 0.0, 0.0, 0.0, -187500.02235174447, -187500.02235174447, 0.0, 0.392, -0.9560000000000001, -0.178, 192.0, 0.0, 0.0, 0.0, 0.0, 0.0, 0.0, 0.0, 0.0, 0.0, 1.677704198968124E9, 0.0, 2023-03-01 12:56:38.968
180.0, 15810.975827095011, 19540.185575507352, 0.0, 0.0, 0.0, -187500.02235174447, -187500.02235174447, 0.0, 0.392, -0.9560000000000001, -0.178, 192.0, 0.0, 0.0, 0.0, 0.0, 0.0, 0.0, 0.0, 0.0, 0.0, 1.67770419897469E9, 0.0, 2023-03-01 12:56:38.974
181.0, 15813.725091663015, 19537.458662683806, 0.0, 0.0, 0.0, -187500.02235174447, -187500.02235174447, 0.0, 0.392, -0.9560000000000001, -0.178, 192.0, 0.0, 0.0, 0.0, 0.0, 0.0, 0.0, 0.0, 0.0, 0.0, 1.677704198974698E9, 0.0, 2023-03-01 12:56:38.974
182.0, 15815.110899819245, 19538.15156676192, 0.0, 0.0, 0.0, -187500.02235174447, -187500.02235174447, 0.0, 0.392, -0.9560000000000001, -0.178, 192.0, 0.0, 0.0, 0.0, 0.0, 0.0, 0.0, 0.0, 0.0, 0.0, 1.677704198983374E9, 0.0, 2023-03-01 12:56:38.983
183.0, 15814.105071318756, 19535.737578360746, 0.0, 0.0, 0.0, -187500.02235174447, -187500.02235174447, 0.0, 0.392, -0.9560000000000001, -0.178, 192.0, 0.0, 0.0, 0.0, 0.0, 0.0, 0.0, 0.0, 0.0, 0.0, 1.677704198983392E9, 0.0, 2023-03-01 12:56:38.983
184.0, 15817.435481242595, 19544.11948253149, 0.0, 0.0, 0.0, -187500.02235174447, -187500.02235174447, 0.0, 0.392, -0.9560000000000001, -0.178, 192.0, 0.0, 0.0, 0.0, 0.0, 0.0, 0.0, 0.0, 0.0, 0.0, 1.677704198989603E9, 0.0, 2023-03-01 12:56:38.989
185.0, 15806.952513093058, 19539.91735457389, 0.0, 0.0, 0.0, -187500.02235174447, -187500.02235174447, 0.0, 0.392, -0.9560000000000001, -0.178, 192.0, 0.0, 0.0, 0.0, 0.0, 0.0, 0.0, 0.0, 0.0, 0.0, 1.677704198989623E9, 0.0, 2023-03-01 12:56:38.989
186.0, 15808.852411371758, 19538.755063862212, 0.0, 0.0, 0.0, -187500.02235174447, -187500.02235174447, 0.0, 0.392, -0.9560000000000001, -0.178, 192.0, 0.0, 0.0, 0.0, 0.0, 0.0, 0.0, 0.0, 0.0, 0.0, 1.677704198997361E9, 0.0, 2023-03-01 12:56:38.997
187.0, 15816.94374286458, 19549.148625033933, 0.0, 0.0, 0.0, -187500.02235174447, -187500.02235174447, 0.0, 0.392, -0.96, -0.178, 192.0, 12.0, 64.0, 226.0, 0.0, 250.0, 112.0, 0.0, 0.0, 0.0, 1.677704198997382E9, 0.0, 2023-03-01 12:56:38.997
188.0, 15814.440347485584, 19541.57138366358, 0.0, 0.0, 0.0, -187500.02235174447, -187500.02235174447, 0.0, 0.392, -0.96, -0.178, 192.0, 0.0, 0.0, 0.0, 0.0, 0.0, 0.0, 0.0, 0.0, 0.0, 1.677704199005283E9, 0.0, 2023-03-01 12:56:39.005
189.0, 15822.330513278308, 19549.81917736759, 0.0, 0.0, 0.0, -187500.02235174447, -187500.02235174447, 0.0, 0.392, -0.96, -0.178, 192.0, 0.0, 0.0, 0.0, 0.0, 0.0, 0.0, 0.0, 0.0, 0.0, 1.677704199005298E9, 0.0, 2023-03-01 12:56:39.005
190.0, 15819.313027776841, 19549.975639578777, 0.0, 0.0, 0.0, -187500.02235174447, -187500.02235174447, 0.0, 0.392, -0.96, -0.178, 192.0, 0.0, 0.0, 0.0, 0.0, 0.0, 0.0, 0.0, 0.0, 0.0, 1.67770419901254E9, 0.0, 2023-03-01 12:56:39.012
191.0, 15819.737710921492, 19547.427540710873, 0.0, 0.0, 0.0, -187500.02235174447, -187500.02235174447, 0.0, 0.392, -0.96, -0.178, 192.0, 0.0, 0.0, 0.0, 0.0, 0.0, 0.0, 0.0, 0.0, 0.0, 1.677704199012553E9, 0.0, 2023-03-01 12:56:39.012
192.0, 15813.74744340747, 19540.744369118736, 0.0, 0.0, 0.0, -187500.02235174447, -187500.02235174447, 0.0, 0.392, -0.96, -0.178, 192.0, 0.0, 0.0, 0.0, 0.0, 0.0, 0.0, 0.0, 0.0, 0.0, 1.677704199019921E9, 0.0, 2023-03-01 12:56:39.019
193.0, 15821.861126644746, 19545.43823545435, 0.0, 0.0, 0.0, -187500.02235174447, -187500.02235174447, 0.0, 0.392, -0.96, -0.178, 192.0, 0.0, 0.0, 0.0, 0.0, 0.0, 0.0, 0.0, 0.0, 0.0, 1.677704199019929E9, 0.0, 2023-03-01 12:56:39.019
194.0, 15825.75033017997, 19548.165148277898, 0.0, 0.0, 0.0, -187500.02235174447, -187500.02235174447, 0.0, 0.392, -0.96, -0.178, 192.0, 0.0, 0.0, 0.0, 0.0, 0.0, 0.0, 0.0, 0.0, 0.0, 1.677704199027061E9, 0.0, 2023-03-01 12:56:39.027
195.0, 15825.99619936898, 19550.556784934615, 0.0, 0.0, 0.0, -187500.02235174447, -187500.02235174447, 0.0, 0.392, -0.96, -0.178, 192.0, 0.0, 0.0, 0.0, 0.0, 0.0, 0.0, 0.0, 0.0, 0.0, 1.677704199034961E9, 0.0, 2023-03-01 12:56:39.034
196.0, 15825.392702268686, 19553.551918691628, 0.0, 0.0, 0.0, -187500.02235174447, -187500.02235174447, 0.0, 0.392, -0.96, -0.178, 192.0, 0.0, 0.0, 0.0, 0.0, 0.0, 0.0, 0.0, 0.0, 0.0, 1.677704199035007E9, 0.0, 2023-03-01 12:56:39.035
197.0, 15826.778510424914, 19557.172901293387, 0.0, 0.0, 0.0, -187500.02235174447, -187500.02235174447, 0.0, 0.386, -0.966, -0.182, 192.0, 12.0, 16.0, 225.0, 208.0, 250.0, 80.0, 0.0, 0.0, 0.0, 1.677704199041599E9, 0.0, 2023-03-01 12:56:39.041
198.0, 15831.315914549341, 19562.090285073555, 0.0, 0.0, 0.0, -187500.02235174447, -187500.02235174447, 0.0, 0.386, -0.966, -0.182, 192.0, 0.0, 0.0, 0.0, 0.0, 0.0, 0.0, 0.0, 0.0, 0.0, 1.677704199041618E9, 0.0, 2023-03-01 12:56:39.041
199.0, 15831.427673271619, 19557.329363504574, 0.0, 0.0, 0.0, -187500.02235174447, -187500.02235174447, 0.0, 0.386, -0.966, -0.182, 192.0, 0.0, 0.0, 0.0, 0.0, 0.0, 0.0, 0.0, 0.0, 0.0, 1.677704199049496E9, 0.0, 2023-03-01 12:56:39.049
200.0, 15833.28286806141, 19556.502348959726, 0.0, 0.0, 0.0, -187500.02235174447, -187500.02235174447, 0.0, 0.386, -0.966, -0.182, 192.0, 0.0, 0.0, 0.0, 0.0, 0.0, 0.0, 0.0, 0.0, 0.0, 1.677704199049512E9, 0.0, 2023-03-01 12:56:39.049
201.0, 15827.404359269663, 19550.042694812142, 0.0, 0.0, 0.0, -187500.02235174447, -187500.02235174447, 0.0, 0.386, -0.966, -0.182, 192.0, 0.0, 0.0, 0.0, 0.0, 0.0, 0.0, 0.0, 0.0, 0.0, 1.677704199059047E9, 0.0, 2023-03-01 12:56:39.059
202.0, 15828.007856369955, 19556.792921637647, 0.0, 0.0, 0.0, -187500.02235174447, -187500.02235174447, 0.0, 0.386, -0.966, -0.182, 192.0, 0.0, 0.0, 0.0, 0.0, 0.0, 0.0, 0.0, 0.0, 0.0, 1.677704199059061E9, 0.0, 2023-03-01 12:56:39.059
203.0, 15827.382007525208, 19561.97852635128, 0.0, 0.0, 0.0, -187500.02235174447, -187500.02235174447, 0.0, 0.386, -0.966, -0.182, 192.0, 0.0, 0.0, 0.0, 0.0, 0.0, 0.0, 0.0, 0.0, 0.0, 1.677704199065203E9, 0.0, 2023-03-01 12:56:39.065
204.0, 15825.191536568587, 19563.45374148533, 0.0, 0.0, 0.0, -187500.02235174447, -187500.02235174447, 0.0, 0.386, -0.966, -0.182, 192.0, 0.0, 0.0, 0.0, 0.0, 0.0, 0.0, 0.0, 0.0, 0.0, 1.677704199065212E9, 0.0, 2023-03-01 12:56:39.065
205.0, 15826.823213913825, 19562.671430429393, 0.0, 0.0, 0.0, -187500.02235174447, -187500.02235174447, 0.0, 0.386, -0.966, -0.182, 192.0, 0.0, 0.0, 0.0, 0.0, 0.0, 0.0, 0.0, 0.0, 0.0, 1.677704199072262E9, 0.0, 2023-03-01 12:56:39.072
206.0, 15823.22458305652, 19560.860939128514, 0.0, 0.0, 0.0, -187500.02235174447, -187500.02235174447, 0.0, 0.386, -0.966, -0.182, 192.0, 0.0, 0.0, 0.0, 0.0, 0.0, 0.0, 0.0, 0.0, 0.0, 1.677704199072281E9, 0.0, 2023-03-01 12:56:39.072
207.0, 15823.693969690083, 19558.73752340526, 0.0, 0.0, 0.0, -187500.02235174447, -187500.02235174447, 0.0, 0.386, -0.966, -0.182, 192.0, 0.0, 0.0, 0.0, 0.0, 0.0, 0.0, 0.0, 0.0, 0.0, 1.677704199080309E9, 0.0, 2023-03-01 12:56:39.080
208.0, 15828.611353470249, 19555.027133825675, 0.0, 0.0, 0.0, -187500.02235174447, -187500.02235174447, 0.0, 0.38, -0.97, -0.18, 192.0, 11.0, 224.0, 225.0, 176.0, 250.0, 96.0, 0.0, 0.0, 0.0, 1.677704199080333E9, 0.0, 2023-03-01 12:56:39.080
209.0, 15822.643437700683, 19552.12140704649, 0.0, 0.0, 0.0, -187500.02235174447, -187500.02235174447, 0.0, 0.38, -0.97, -0.18, 192.0, 0.0, 0.0, 0.0, 0.0, 0.0, 0.0, 0.0, 0.0, 0.0, 1.67770419908714E9, 0.0, 2023-03-01 12:56:39.087
210.0, 15822.822251656326, 19556.614107682002, 0.0, 0.0, 0.0, -187500.02235174447, -187500.02235174447, 0.0, 0.38, -0.97, -0.18, 192.0, 0.0, 0.0, 0.0, 0.0, 0.0, 0.0, 0.0, 0.0, 0.0, 1.677704199094364E9, 0.0, 2023-03-01 12:56:39.094
211.0, 15822.129347578211, 19556.122369303986, 0.0, 0.0, 0.0, -187500.02235174447, -187500.02235174447, 0.0, 0.38, -0.97, -0.18, 192.0, 0.0, 0.0, 0.0, 0.0, 0.0, 0.0, 0.0, 0.0, 0.0, 1.677704199094374E9, 0.0, 2023-03-01 12:56:39.094
212.0, 15820.140042321687, 19555.9659070928, 0.0, 0.0, 0.0, -187500.02235174447, -187500.02235174447, 0.0, 0.38, -0.97, -0.18, 192.0, 0.0, 0.0, 0.0, 0.0, 0.0, 0.0, 0.0, 0.0, 0.0, 1.67770419910193E9, 0.0, 2023-03-01 12:56:39.101
213.0, 15821.74936792247, 19555.45181697033, 0.0, 0.0, 0.0, -187500.02235174447, -187500.02235174447, 0.0, 0.38, -0.97, -0.18, 192.0, 0.0, 0.0, 0.0, 0.0, 0.0, 0.0, 0.0, 0.0, 0.0, 1.677704199101944E9, 0.0, 2023-03-01 12:56:39.101
214.0, 15823.917487134635, 19558.20108153833, 0.0, 0.0, 0.0, -187500.02235174447, -187500.02235174447, 0.0, 0.38, -0.97, -0.18, 192.0, 0.0, 0.0, 0.0, 0.0, 0.0, 0.0, 0.0, 0.0, 0.0, 1.677704199109777E9, 0.0, 2023-03-01 12:56:39.109
215.0, 15823.1351760787, 19555.608279181513, 0.0, 0.0, 0.0, -187500.02235174447, -187500.02235174447, 0.0, 0.38, -0.97, -0.18, 192.0, 0.0, 0.0, 0.0, 0.0, 0.0, 0.0, 0.0, 0.0, 0.0, 1.677704199109786E9, 0.0, 2023-03-01 12:56:39.109
216.0, 15823.068120845333, 19563.118465318497, 0.0, 0.0, 0.0, -187500.02235174447, -187500.02235174447, 0.0, 0.38, -0.97, -0.18, 192.0, 0.0, 0.0, 0.0, 0.0, 0.0, 0.0, 0.0, 0.0, 0.0, 1.677704199117846E9, 0.0, 2023-03-01 12:56:39.117
217.0, 15827.449062758573, 19570.53924447766, 0.0, 0.0, 0.0, -187500.02235174447, -187500.02235174447, 0.0, 0.38, -0.97, -0.18, 192.0, 0.0, 0.0, 0.0, 0.0, 0.0, 0.0, 0.0, 0.0, 0.0, 1.677704199117865E9, 0.0, 2023-03-01 12:56:39.117
218.0, 15832.701722705571, 19568.482883987774, 0.0, 0.0, 0.0, -187500.02235174447, -187500.02235174447, 0.0, 0.384, -0.97, -0.186, 192.0, 12.0, 0.0, 225.0, 176.0, 250.0, 48.0, 0.0, 0.0, 0.0, 1.677704199124471E9, 0.0, 2023-03-01 12:56:39.124
219.0, 15835.450987273574, 19561.419732739894, 0.0, 0.0, 0.0, -187500.02235174447, -187500.02235174447, 0.0, 0.384, -0.97, -0.186, 192.0, 0.0, 0.0, 0.0, 0.0, 0.0, 0.0, 0.0, 0.0, 0.0, 1.677704199124494E9, 0.0, 2023-03-01 12:56:39.124
220.0, 15808.137155549188, 19543.67244764238, 0.0, 0.0, 0.0, -187500.02235174447, -187500.02235174447, 0.0, 0.384, -0.97, -0.186, 192.0, 0.0, 0.0, 0.0, 0.0, 0.0, 0.0, 0.0, 0.0, 0.0, 1.677704199132476E9, 0.0, 2023-03-01 12:56:39.132
221.0, 15811.713434662037, 19551.808482624114, 0.0, 0.0, 0.0, -187500.02235174447, -187500.02235174447, 0.0, 0.384, -0.97, -0.186, 192.0, 0.0, 0.0, 0.0, 0.0, 0.0, 0.0, 0.0, 0.0, 0.0, 1.677704199132492E9, 0.0, 2023-03-01 12:56:39.132
222.0, 15820.497670232973, 19555.63063092597, 0.0, 0.0, 0.0, -187500.02235174447, -187500.02235174447, 0.0, 0.384, -0.97, -0.186, 192.0, 0.0, 0.0, 0.0, 0.0, 0.0, 0.0, 0.0, 0.0, 0.0, 1.677704199141892E9, 0.0, 2023-03-01 12:56:39.141
223.0, 15815.89321087518, 19551.137930290453, 0.0, 0.0, 0.0, -187500.02235174447, -187500.02235174447, 0.0, 0.384, -0.97, -0.186, 192.0, 0.0, 0.0, 0.0, 0.0, 0.0, 0.0, 0.0, 0.0, 0.0, 1.677704199141905E9, 0.0, 2023-03-01 12:56:39.141
224.0, 15813.434518985096, 19549.148625033933, 0.0, 0.0, 0.0, -187500.02235174447, -187500.02235174447, 0.0, 0.384, -0.97, -0.186, 192.0, 0.0, 0.0, 0.0, 0.0, 0.0, 0.0, 0.0, 0.0, 0.0, 1.677704199148013E9, 0.0, 2023-03-01 12:56:39.148
225.0, 15811.08758581729, 19543.761854620203, 0.0, 0.0, 0.0, -187500.02235174447, -187500.02235174447, 0.0, 0.384, -0.97, -0.186, 192.0, 0.0, 0.0, 0.0, 0.0, 0.0, 0.0, 0.0, 0.0, 0.0, 1.677704199154224E9, 0.0, 2023-03-01 12:56:39.154
226.0, 15813.859202129746, 19545.661752898905, 0.0, 0.0, 0.0, -187500.02235174447, -187500.02235174447, 0.0, 0.384, -0.97, -0.186, 192.0, 0.0, 0.0, 0.0, 0.0, 0.0, 0.0, 0.0, 0.0, 0.0, 1.677704199154233E9, 0.0, 2023-03-01 12:56:39.154
227.0, 15811.713434662037, 19547.852223855523, 0.0, 0.0, 0.0, -187500.02235174447, -187500.02235174447, 0.0, 0.384, -0.97, -0.186, 192.0, 0.0, 0.0, 0.0, 0.0, 0.0, 0.0, 0.0, 0.0, 0.0, 1.677704199162082E9, 0.0, 2023-03-01 12:56:39.162
228.0, 15822.621085956227, 19564.280756030174, 0.0, 0.0, 0.0, -187500.02235174447, -187500.02235174447, 0.0, 0.374, -0.968, -0.19, 192.0, 11.0, 176.0, 225.0, 192.0, 250.0, 16.0, 0.0, 0.0, 0.0, 1.677704199162121E9, 0.0, 2023-03-01 12:56:39.162
229.0, 15828.164318581143, 19567.365296765005, 0.0, 0.0, 0.0, -187500.02235174447, -187500.02235174447, 0.0, 0.374, -0.968, -0.19, 192.0, 0.0, 0.0, 0.0, 0.0, 0.0, 0.0, 0.0, 0.0, 0.0, 1.677704199170088E9, 0.0, 2023-03-01 12:56:39.170
230.0, 15824.23041155701, 19556.748218148736, 0.0, 0.0, 0.0, -187500.02235174447, -187500.02235174447, 0.0, 0.374, -0.968, -0.19, 192.0, 0.0, 0.0, 0.0, 0.0, 0.0, 0.0, 0.0, 0.0, 0.0, 1.677704199170109E9, 0.0, 2023-03-01 12:56:39.170
231.0, 15819.380083010208, 19552.814311124603, 0.0, 0.0, 0.0, -187500.02235174447, -187500.02235174447, 0.0, 0.374, -0.968, -0.19, 192.0, 0.0, 0.0, 0.0, 0.0, 0.0, 0.0, 0.0, 0.0, 0.0, 1.677704199177233E9, 0.0, 2023-03-01 12:56:39.177
