%OpenBCI Raw EEG Data
%Number of channels = 8
%Sample Rate = 250 Hz
%Board = OpenBCI_GUI$BoardCytonSerial
Sample Index, EXG Channel 0, EXG Channel 1, EXG Channel 2, EXG Channel 3, EXG Channel 4, EXG Channel 5, EXG Channel 6, EXG Channel 7, Accel Channel 0, Accel Channel 1, Accel Channel 2, Other, Other, Other, Other, Other, Other, Other, Analog Channel 0, Analog Channel 1, Analog Channel 2, Timestamp, Other, Timestamp (Formatted)
126.0, 15515.888096796049, 19035.57259268434, 0.0, 0.0, 0.0, -187500.02235174447, -187500.02235174447, 0.0, 0.0, 0.0, 0.0, 192.0, 0.0, 0.0, 0.0, 0.0, 0.0, 0.0, 0.0, 0.0, 0.0, 1.677704280180905E9, 0.0, 2023-03-01 12:58:00.180
127.0, 15514.88226829556, 19033.806804872373, 0.0, 0.0, 0.0, -187500.02235174447, -187500.02235174447, 0.0, 0.0, 0.0, 0.0, 192.0, 0.0, 0.0, 0.0, 0.0, 0.0, 0.0, 0.0, 0.0, 0.0, 1.677704280180923E9, 0.0, 2023-03-01 12:58:00.180
128.0, 15514.54699212873, 19030.47639494853, 0.0, 0.0, 0.0, -187500.02235174447, -187500.02235174447, 0.0, 0.0, 0.0, 0.0, 192.0, 0.0, 0.0, 0.0, 0.0, 0.0, 0.0, 0.0, 0.0, 0.0, 1.67770428018093E9, 0.0, 2023-03-01 12:58:00.180
129.0, 15514.748157828828, 19030.18582227061, 0.0, 0.0, 0.0, -187500.02235174447, -187500.02235174447, 0.0, 0.0, 0.0, 0.0, 192.0, 0.0, 0.0, 0.0, 0.0, 0.0, 0.0, 0.0, 0.0, 0.0, 1.677704280180938E9, 0.0, 2023-03-01 12:58:00.180
130.0, 15519.39732067553, 19031.81749961585, 0.0, 0.0, 0.0, -187500.02235174447, -187500.02235174447, 0.0, 0.0, 0.0, 0.0, 192.0, 0.0, 0.0, 0.0, 0.0, 0.0, 0.0, 0.0, 0.0, 0.0, 1.677704280180945E9, 0.0, 2023-03-01 12:58:00.180
131.0, 15517.765643330295, 19034.924392095138, 0.0, 0.0, 0.0, -187500.02235174447, -187500.02235174447, 0.0, 0.0, 0.0, 0.0, 192.0, 0.0, 0.0, 0.0, 0.0, 0.0, 0.0, 0.0, 0.0, 0.0, 1.677704280180953E9, 0.0, 2023-03-01 12:58:00.180
0.0, 0.0, 0.0, 0.0, 0.0, 0.0, 0.0, 0.0, 0.0, 0.0, 0.0, 0.0, 192.0, 0.0, 0.0, 0.0, 0.0, 0.0, 0.0, 0.0, 0.0, 0.0, 1.677704280243585E9, 0.0, 2023-03-01 12:58:00.243
1.0, 15643.158929724566, 19103.186619661647, 0.0, 0.0, 0.0, -187500.02235174447, -187500.02235174447, 0.0, 0.366, -0.974, -0.15, 192.0, 11.0, 112.0, 225.0, 144.0, 251.0, 80.0, 0.0, 0.0, 0.0, 1.677704280266249E9, 0.0, 2023-03-01 12:58:00.266
2.0, 15641.1919762125, 19104.81829700688, 0.0, 0.0, 0.0, -187500.02235174447, -187500.02235174447, 0.0, 0.366, -0.974, -0.15, 192.0, 0.0, 0.0, 0.0, 0.0, 0.0, 0.0, 0.0, 0.0, 0.0, 1.677704280266265E9, 0.0, 2023-03-01 12:58:00.266
3.0, 15637.123958721633, 19106.405270863208, 0.0, 0.0, 0.0, -187500.02235174447, -187500.02235174447, 0.0, 0.366, -0.974, -0.15, 192.0, 0.0, 0.0, 0.0, 0.0, 0.0, 0.0, 0.0, 0.0, 0.0, 1.677704280272737E9, 0.0, 2023-03-01 12:58:00.272
4.0, 15635.402874398575, 19096.861075980793, 0.0, 0.0, 0.0, -187500.02235174447, -187500.02235174447, 0.0, 0.366, -0.974, -0.15, 192.0, 0.0, 0.0, 0.0, 0.0, 0.0, 0.0, 0.0, 0.0, 0.0, 1.677704280272758E9, 0.0, 2023-03-01 12:58:00.272
5.0, 15642.466025646452, 19101.666701038685, 0.0, 0.0, 0.0, -187500.02235174447, -187500.02235174447, 0.0, 0.366, -0.974, -0.15, 192.0, 0.0, 0.0, 0.0, 0.0, 0.0, 0.0, 0.0, 0.0, 0.0, 1.67770428028073E9, 0.0, 2023-03-01 12:58:00.280
6.0, 15641.706066334971, 19114.340140144843, 0.0, 0.0, 0.0, -187500.02235174447, -187500.02235174447, 0.0, 0.366, -0.974, -0.15, 192.0, 0.0, 0.0, 0.0, 0.0, 0.0, 0.0, 0.0, 0.0, 0.0, 1.677704280280745E9, 0.0, 2023-03-01 12:58:00.280
7.0, 15637.168662210544, 19117.558791346408, 0.0, 0.0, 0.0, -187500.02235174447, -187500.02235174447, 0.0, 0.366, -0.974, -0.15, 192.0, 0.0, 0.0, 0.0, 0.0, 0.0, 0.0, 0.0, 0.0, 0.0, 1.677704280287829E9, 0.0, 2023-03-01 12:58:00.287
8.0, 15637.414531399552, 19111.63557906575, 0.0, 0.0, 0.0, -187500.02235174447, -187500.02235174447, 0.0, 0.364, -0.974, -0.156, 192.0, 11.0, 96.0, 225.0, 144.0, 251.0, 32.0, 0.0, 0.0, 0.0, 1.677704280287848E9, 0.0, 2023-03-01 12:58:00.287
9.0, 15642.130749479622, 19109.98154997606, 0.0, 0.0, 0.0, -187500.02235174447, -187500.02235174447, 0.0, 0.364, -0.974, -0.156, 192.0, 0.0, 0.0, 0.0, 0.0, 0.0, 0.0, 0.0, 0.0, 0.0, 1.677704280295213E9, 0.0, 2023-03-01 12:58:00.295
10.0, 15639.470891889441, 19111.322654643376, 0.0, 0.0, 0.0, -187500.02235174447, -187500.02235174447, 0.0, 0.364, -0.974, -0.156, 192.0, 0.0, 0.0, 0.0, 0.0, 0.0, 0.0, 0.0, 0.0, 0.0, 1.677704280295227E9, 0.0, 2023-03-01 12:58:00.295
11.0, 15635.134653465111, 19102.940750472637, 0.0, 0.0, 0.0, -187500.02235174447, -187500.02235174447, 0.0, 0.364, -0.974, -0.156, 192.0, 0.0, 0.0, 0.0, 0.0, 0.0, 0.0, 0.0, 0.0, 0.0, 1.677704280303234E9, 0.0, 2023-03-01 12:58:00.303
12.0, 15633.659438331062, 19095.497619569018, 0.0, 0.0, 0.0, -187500.02235174447, -187500.02235174447, 0.0, 0.364, -0.974, -0.156, 192.0, 0.0, 0.0, 0.0, 0.0, 0.0, 0.0, 0.0, 0.0, 0.0, 1.677704280303247E9, 0.0, 2023-03-01 12:58:00.303
13.0, 15632.407740641564, 19098.962139959593, 0.0, 0.0, 0.0, -187500.02235174447, -187500.02235174447, 0.0, 0.364, -0.974, -0.156, 192.0, 0.0, 0.0, 0.0, 0.0, 0.0, 0.0, 0.0, 0.0, 0.0, 1.677704280310283E9, 0.0, 2023-03-01 12:58:00.310
14.0, 15632.206574941467, 19098.001014948015, 0.0, 0.0, 0.0, -187500.02235174447, -187500.02235174447, 0.0, 0.364, -0.974, -0.156, 192.0, 0.0, 0.0, 0.0, 0.0, 0.0, 0.0, 0.0, 0.0, 0.0, 1.677704280310295E9, 0.0, 2023-03-01 12:58:00.310
15.0, 15630.70900806296, 19094.82706723536, 0.0, 0.0, 0.0, -187500.02235174447, -187500.02235174447, 0.0, 0.364, -0.974, -0.156, 192.0, 0.0, 0.0, 0.0, 0.0, 0.0, 0.0, 0.0, 0.0, 0.0, 1.677704280316908E9, 0.0, 2023-03-01 12:58:00.316
16.0, 15627.691522561494, 19100.191485904634, 0.0, 0.0, 0.0, -187500.02235174447, -187500.02235174447, 0.0, 0.364, -0.974, -0.156, 192.0, 0.0, 0.0, 0.0, 0.0, 0.0, 0.0, 0.0, 0.0, 0.0, 1.677704280316935E9, 0.0, 2023-03-01 12:58:00.316
17.0, 15619.957818979958, 19091.809581733894, 0.0, 0.0, 0.0, -187500.02235174447, -187500.02235174447, 0.0, 0.364, -0.974, -0.156, 192.0, 0.0, 0.0, 0.0, 0.0, 0.0, 0.0, 0.0, 0.0, 0.0, 1.677704280324972E9, 0.0, 2023-03-01 12:58:00.324
18.0, 15627.266839416843, 19097.82220099237, 0.0, 0.0, 0.0, -187500.02235174447, -187500.02235174447, 0.0, 0.368, -0.974, -0.162, 192.0, 11.0, 128.0, 225.0, 144.0, 250.0, 240.0, 0.0, 0.0, 0.0, 1.677704280333063E9, 0.0, 2023-03-01 12:58:00.333
19.0, 15631.223098185434, 19102.896046983726, 0.0, 0.0, 0.0, -187500.02235174447, -187500.02235174447, 0.0, 0.368, -0.974, -0.162, 192.0, 0.0, 0.0, 0.0, 0.0, 0.0, 0.0, 0.0, 0.0, 0.0, 1.677704280333079E9, 0.0, 2023-03-01 12:58:00.333
20.0, 15633.27945867532, 19102.53841907244, 0.0, 0.0, 0.0, -187500.02235174447, -187500.02235174447, 0.0, 0.368, -0.974, -0.162, 192.0, 0.0, 0.0, 0.0, 0.0, 0.0, 0.0, 0.0, 0.0, 0.0, 1.677704280340151E9, 0.0, 2023-03-01 12:58:00.340
21.0, 15635.112301720656, 19100.72792777156, 0.0, 0.0, 0.0, -187500.02235174447, -187500.02235174447, 0.0, 0.368, -0.974, -0.162, 192.0, 0.0, 0.0, 0.0, 0.0, 0.0, 0.0, 0.0, 0.0, 0.0, 1.677704280340164E9, 0.0, 2023-03-01 12:58:00.340
22.0, 15631.42426388553, 19095.83289573585, 0.0, 0.0, 0.0, -187500.02235174447, -187500.02235174447, 0.0, 0.368, -0.974, -0.162, 192.0, 0.0, 0.0, 0.0, 0.0, 0.0, 0.0, 0.0, 0.0, 0.0, 1.677704280347454E9, 0.0, 2023-03-01 12:58:00.347
23.0, 15621.835365514204, 19086.176942131155, 0.0, 0.0, 0.0, -187500.02235174447, -187500.02235174447, 0.0, 0.368, -0.974, -0.162, 192.0, 0.0, 0.0, 0.0, 0.0, 0.0, 0.0, 0.0, 0.0, 0.0, 1.677704280347465E9, 0.0, 2023-03-01 12:58:00.347
24.0, 15620.270743402332, 19085.05935490839, 0.0, 0.0, 0.0, -187500.02235174447, -187500.02235174447, 0.0, 0.368, -0.974, -0.162, 192.0, 0.0, 0.0, 0.0, 0.0, 0.0, 0.0, 0.0, 0.0, 0.0, 1.6777042803569E9, 0.0, 2023-03-01 12:58:00.356
25.0, 15627.155080694567, 19105.77942201846, 0.0, 0.0, 0.0, -187500.02235174447, -187500.02235174447, 0.0, 0.368, -0.974, -0.162, 192.0, 0.0, 0.0, 0.0, 0.0, 0.0, 0.0, 0.0, 0.0, 0.0, 1.677704280356919E9, 0.0, 2023-03-01 12:58:00.356
26.0, 15649.775046083338, 19116.754128546017, 0.0, 0.0, 0.0, -187500.02235174447, -187500.02235174447, 0.0, 0.368, -0.974, -0.162, 192.0, 0.0, 0.0, 0.0, 0.0, 0.0, 0.0, 0.0, 0.0, 0.0, 1.677704280363533E9, 0.0, 2023-03-01 12:58:00.363
27.0, 15623.556449837262, 19073.056468135892, 0.0, 0.0, 0.0, -187500.02235174447, -187500.02235174447, 0.0, 0.368, -0.974, -0.162, 192.0, 0.0, 0.0, 0.0, 0.0, 0.0, 0.0, 0.0, 0.0, 0.0, 1.677704280363606E9, 0.0, 2023-03-01 12:58:00.363
28.0, 15611.821783998226, 19068.809636689384, 0.0, 0.0, 0.0, -187500.02235174447, -187500.02235174447, 0.0, 0.366, -0.976, -0.16, 192.0, 11.0, 112.0, 225.0, 128.0, 251.0, 0.0, 0.0, 0.0, 0.0, 1.677704280370111E9, 0.0, 2023-03-01 12:58:00.370
29.0, 15618.035568956802, 19085.506389797498, 0.0, 0.0, 0.0, -187500.02235174447, -187500.02235174447, 0.0, 0.366, -0.976, -0.16, 192.0, 0.0, 0.0, 0.0, 0.0, 0.0, 0.0, 0.0, 0.0, 0.0, 1.677704280370127E9, 0.0, 2023-03-01 12:58:00.370
30.0, 15630.66430457405, 19096.056413180402, 0.0, 0.0, 0.0, -187500.02235174447, -187500.02235174447, 0.0, 0.366, -0.976, -0.16, 192.0, 0.0, 0.0, 0.0, 0.0, 0.0, 0.0, 0.0, 0.0, 0.0, 1.677704280378291E9, 0.0, 2023-03-01 12:58:00.378
31.0, 15625.612810327151, 19086.691032253628, 0.0, 0.0, 0.0, -187500.02235174447, -187500.02235174447, 0.0, 0.366, -0.976, -0.16, 192.0, 0.0, 0.0, 0.0, 0.0, 0.0, 0.0, 0.0, 0.0, 0.0, 1.677704280378306E9, 0.0, 2023-03-01 12:58:00.378
32.0, 15608.42431884102, 19073.659965236184, 0.0, 0.0, 0.0, -187500.02235174447, -187500.02235174447, 0.0, 0.366, -0.976, -0.16, 192.0, 0.0, 0.0, 0.0, 0.0, 0.0, 0.0, 0.0, 0.0, 0.0, 1.67770428038534E9, 0.0, 2023-03-01 12:58:00.385
33.0, 15601.85290597116, 19062.23822381952, 0.0, 0.0, 0.0, -187500.02235174447, -187500.02235174447, 0.0, 0.366, -0.976, -0.16, 192.0, 0.0, 0.0, 0.0, 0.0, 0.0, 0.0, 0.0, 0.0, 0.0, 1.677704280393262E9, 0.0, 2023-03-01 12:58:00.393
34.0, 15604.89274321708, 19065.680392465638, 0.0, 0.0, 0.0, -187500.02235174447, -187500.02235174447, 0.0, 0.366, -0.976, -0.16, 192.0, 0.0, 0.0, 0.0, 0.0, 0.0, 0.0, 0.0, 0.0, 0.0, 1.677704280393271E9, 0.0, 2023-03-01 12:58:00.393
35.0, 15607.172621151522, 19073.481151280543, 0.0, 0.0, 0.0, -187500.02235174447, -187500.02235174447, 0.0, 0.366, -0.976, -0.16, 192.0, 0.0, 0.0, 0.0, 0.0, 0.0, 0.0, 0.0, 0.0, 0.0, 1.677704280399832E9, 0.0, 2023-03-01 12:58:00.399
36.0, 15609.22898164141, 19078.39853506071, 0.0, 0.0, 0.0, -187500.02235174447, -187500.02235174447, 0.0, 0.366, -0.976, -0.16, 192.0, 0.0, 0.0, 0.0, 0.0, 0.0, 0.0, 0.0, 0.0, 0.0, 1.67770428039985E9, 0.0, 2023-03-01 12:58:00.399
37.0, 15611.106528175656, 19076.833912948838, 0.0, 0.0, 0.0, -187500.02235174447, -187500.02235174447, 0.0, 0.366, -0.976, -0.16, 192.0, 0.0, 0.0, 0.0, 0.0, 0.0, 0.0, 0.0, 0.0, 0.0, 1.6777042804079E9, 0.0, 2023-03-01 12:58:00.407
38.0, 15609.072519430223, 19078.77851471645, 0.0, 0.0, 0.0, -187500.02235174447, -187500.02235174447, 0.0, 0.366, -0.976, -0.166, 192.0, 11.0, 112.0, 225.0, 128.0, 250.0, 208.0, 0.0, 0.0, 0.0, 1.677704280407922E9, 0.0, 2023-03-01 12:58:00.407
39.0, 15608.357263607653, 19076.63274724874, 0.0, 0.0, 0.0, -187500.02235174447, -187500.02235174447, 0.0, 0.366, -0.976, -0.166, 192.0, 0.0, 0.0, 0.0, 0.0, 0.0, 0.0, 0.0, 0.0, 0.0, 1.677704280415827E9, 0.0, 2023-03-01 12:58:00.415
40.0, 15610.190106652988, 19084.54526478592, 0.0, 0.0, 0.0, -187500.02235174447, -187500.02235174447, 0.0, 0.366, -0.976, -0.166, 192.0, 0.0, 0.0, 0.0, 0.0, 0.0, 0.0, 0.0, 0.0, 0.0, 1.677704280415843E9, 0.0, 2023-03-01 12:58:00.415
41.0, 15614.28047588831, 19092.815410234383, 0.0, 0.0, 0.0, -187500.02235174447, -187500.02235174447, 0.0, 0.366, -0.976, -0.166, 192.0, 0.0, 0.0, 0.0, 0.0, 0.0, 0.0, 0.0, 0.0, 0.0, 1.677704280422906E9, 0.0, 2023-03-01 12:58:00.422
42.0, 15616.359188122653, 19096.905779469704, 0.0, 0.0, 0.0, -187500.02235174447, -187500.02235174447, 0.0, 0.366, -0.976, -0.166, 192.0, 0.0, 0.0, 0.0, 0.0, 0.0, 0.0, 0.0, 0.0, 0.0, 1.677704280422924E9, 0.0, 2023-03-01 12:58:00.422
43.0, 15616.023911955825, 19093.73183175705, 0.0, 0.0, 0.0, -187500.02235174447, -187500.02235174447, 0.0, 0.366, -0.976, -0.166, 192.0, 0.0, 0.0, 0.0, 0.0, 0.0, 0.0, 0.0, 0.0, 0.0, 1.677704280430511E9, 0.0, 2023-03-01 12:58:00.430
44.0, 15618.214382912443, 19088.993261932526, 0.0, 0.0, 0.0, -187500.02235174447, -187500.02235174447, 0.0, 0.366, -0.976, -0.166, 192.0, 0.0, 0.0, 0.0, 0.0, 0.0, 0.0, 0.0, 0.0, 0.0, 1.677704280430567E9, 0.0, 2023-03-01 12:58:00.430
45.0, 15615.062786944245, 19086.10988689779, 0.0, 0.0, 0.0, -187500.02235174447, -187500.02235174447, 0.0, 0.366, -0.976, -0.166, 192.0, 0.0, 0.0, 0.0, 0.0, 0.0, 0.0, 0.0, 0.0, 0.0, 1.677704280438415E9, 0.0, 2023-03-01 12:58:00.438
46.0, 15613.162888665545, 19086.936901442637, 0.0, 0.0, 0.0, -187500.02235174447, -187500.02235174447, 0.0, 0.366, -0.976, -0.166, 192.0, 0.0, 0.0, 0.0, 0.0, 0.0, 0.0, 0.0, 0.0, 0.0, 1.677704280438426E9, 0.0, 2023-03-01 12:58:00.438
47.0, 15616.001560211369, 19091.586064289342, 0.0, 0.0, 0.0, -187500.02235174447, -187500.02235174447, 0.0, 0.366, -0.976, -0.166, 192.0, 0.0, 0.0, 0.0, 0.0, 0.0, 0.0, 0.0, 0.0, 0.0, 1.677704280445442E9, 0.0, 2023-03-01 12:58:00.445
48.0, 15615.621580555628, 19097.576331803364, 0.0, 0.0, 0.0, -187500.02235174447, -187500.02235174447, 0.0, 0.362, -0.984, -0.162, 192.0, 11.0, 80.0, 225.0, 64.0, 250.0, 240.0, 0.0, 0.0, 0.0, 1.677704280452083E9, 0.0, 2023-03-01 12:58:00.452
49.0, 15615.755691022361, 19086.892197953726, 0.0, 0.0, 0.0, -187500.02235174447, -187500.02235174447, 0.0, 0.362, -0.984, -0.162, 192.0, 0.0, 0.0, 0.0, 0.0, 0.0, 0.0, 0.0, 0.0, 0.0, 1.677704280452101E9, 0.0, 2023-03-01 12:58:00.452
50.0, 15612.380577609609, 19083.561788029885, 0.0, 0.0, 0.0, -187500.02235174447, -187500.02235174447, 0.0, 0.362, -0.984, -0.162, 192.0, 0.0, 0.0, 0.0, 0.0, 0.0, 0.0, 0.0, 0.0, 0.0, 1.677704280460229E9, 0.0, 2023-03-01 12:58:00.460
51.0, 15613.341702621186, 19084.992299675025, 0.0, 0.0, 0.0, -187500.02235174447, -187500.02235174447, 0.0, 0.362, -0.984, -0.162, 192.0, 0.0, 0.0, 0.0, 0.0, 0.0, 0.0, 0.0, 0.0, 0.0, 1.677704280460247E9, 0.0, 2023-03-01 12:58:00.460
52.0, 15610.637141542094, 19092.569541045374, 0.0, 0.0, 0.0, -187500.02235174447, -187500.02235174447, 0.0, 0.362, -0.984, -0.162, 192.0, 0.0, 0.0, 0.0, 0.0, 0.0, 0.0, 0.0, 0.0, 0.0, 1.677704280468277E9, 0.0, 2023-03-01 12:58:00.468
53.0, 15601.562333293241, 19091.87663696726, 0.0, 0.0, 0.0, -187500.02235174447, -187500.02235174447, 0.0, 0.362, -0.984, -0.162, 192.0, 0.0, 0.0, 0.0, 0.0, 0.0, 0.0, 0.0, 0.0, 0.0, 1.677704280468289E9, 0.0, 2023-03-01 12:58:00.468
54.0, 15610.413624097542, 19086.668680509174, 0.0, 0.0, 0.0, -187500.02235174447, -187500.02235174447, 0.0, 0.362, -0.984, -0.162, 192.0, 0.0, 0.0, 0.0, 0.0, 0.0, 0.0, 0.0, 0.0, 0.0, 1.677704280475127E9, 0.0, 2023-03-01 12:58:00.475
55.0, 15608.960760707947, 19075.358697814787, 0.0, 0.0, 0.0, -187500.02235174447, -187500.02235174447, 0.0, 0.362, -0.984, -0.162, 192.0, 0.0, 0.0, 0.0, 0.0, 0.0, 0.0, 0.0, 0.0, 0.0, 1.677704280475146E9, 0.0, 2023-03-01 12:58:00.475
56.0, 15608.759595007848, 19076.409229804187, 0.0, 0.0, 0.0, -187500.02235174447, -187500.02235174447, 0.0, 0.362, -0.984, -0.162, 192.0, 0.0, 0.0, 0.0, 0.0, 0.0, 0.0, 0.0, 0.0, 0.0, 1.677704280482758E9, 0.0, 2023-03-01 12:58:00.482
57.0, 15608.446670585476, 19075.962194915082, 0.0, 0.0, 0.0, -187500.02235174447, -187500.02235174447, 0.0, 0.362, -0.984, -0.162, 192.0, 0.0, 0.0, 0.0, 0.0, 0.0, 0.0, 0.0, 0.0, 0.0, 1.677704280482771E9, 0.0, 2023-03-01 12:58:00.482
58.0, 15607.865525229638, 19076.588043759828, 0.0, 0.0, 0.0, -187500.02235174447, -187500.02235174447, 0.0, 0.362, -0.984, -0.162, 192.0, 0.0, 0.0, 0.0, 0.0, 0.0, 0.0, 0.0, 0.0, 0.0, 1.677704280490824E9, 0.0, 2023-03-01 12:58:00.490
59.0, 15602.94814144947, 19075.515160025974, 0.0, 0.0, 0.0, -187500.02235174447, -187500.02235174447, 0.0, 0.356, -0.984, -0.16, 192.0, 11.0, 32.0, 225.0, 64.0, 251.0, 0.0, 0.0, 0.0, 0.0, 1.677704280490843E9, 0.0, 2023-03-01 12:58:00.490
60.0, 15596.46613555743, 19074.464628036574, 0.0, 0.0, 0.0, -187500.02235174447, -187500.02235174447, 0.0, 0.356, -0.984, -0.16, 192.0, 0.0, 0.0, 0.0, 0.0, 0.0, 0.0, 0.0, 0.0, 0.0, 1.677704280498736E9, 0.0, 2023-03-01 12:58:00.498
61.0, 15592.062841899735, 19073.81642744737, 0.0, 0.0, 0.0, -187500.02235174447, -187500.02235174447, 0.0, 0.356, -0.984, -0.16, 192.0, 0.0, 0.0, 0.0, 0.0, 0.0, 0.0, 0.0, 0.0, 0.0, 1.677704280498755E9, 0.0, 2023-03-01 12:58:00.498
62.0, 15599.573028036719, 19068.340250055822, 0.0, 0.0, 0.0, -187500.02235174447, -187500.02235174447, 0.0, 0.356, -0.984, -0.16, 192.0, 0.0, 0.0, 0.0, 0.0, 0.0, 0.0, 0.0, 0.0, 0.0, 1.677704280505011E9, 0.0, 2023-03-01 12:58:00.505
63.0, 15605.719757761928, 19074.44227629212, 0.0, 0.0, 0.0, -187500.02235174447, -187500.02235174447, 0.0, 0.356, -0.984, -0.16, 192.0, 0.0, 0.0, 0.0, 0.0, 0.0, 0.0, 0.0, 0.0, 0.0, 1.677704280513005E9, 0.0, 2023-03-01 12:58:00.513
64.0, 15599.863600714638, 19075.15753211469, 0.0, 0.0, 0.0, -187500.02235174447, -187500.02235174447, 0.0, 0.356, -0.984, -0.16, 192.0, 0.0, 0.0, 0.0, 0.0, 0.0, 0.0, 0.0, 0.0, 0.0, 1.677704280513018E9, 0.0, 2023-03-01 12:58:00.513
65.0, 15599.215400125433, 19075.06812513687, 0.0, 0.0, 0.0, -187500.02235174447, -187500.02235174447, 0.0, 0.356, -0.984, -0.16, 192.0, 0.0, 0.0, 0.0, 0.0, 0.0, 0.0, 0.0, 0.0, 0.0, 1.677704280520466E9, 0.0, 2023-03-01 12:58:00.520
66.0, 15593.314539589232, 19064.518101753965, 0.0, 0.0, 0.0, -187500.02235174447, -187500.02235174447, 0.0, 0.356, -0.984, -0.16, 192.0, 0.0, 0.0, 0.0, 0.0, 0.0, 0.0, 0.0, 0.0, 0.0, 1.677704280520482E9, 0.0, 2023-03-01 12:58:00.520
67.0, 15595.2814931013, 19061.545319741406, 0.0, 0.0, 0.0, -187500.02235174447, -187500.02235174447, 0.0, 0.356, -0.984, -0.16, 192.0, 0.0, 0.0, 0.0, 0.0, 0.0, 0.0, 0.0, 0.0, 0.0, 1.677704280529823E9, 0.0, 2023-03-01 12:58:00.529
68.0, 15602.881086216103, 19068.966098900568, 0.0, 0.0, 0.0, -187500.02235174447, -187500.02235174447, 0.0, 0.356, -0.984, -0.16, 192.0, 0.0, 0.0, 0.0, 0.0, 0.0, 0.0, 0.0, 0.0, 0.0, 1.677704280529832E9, 0.0, 2023-03-01 12:58:00.529
69.0, 15600.08711815919, 19073.928186169647, 0.0, 0.0, 0.0, -187500.02235174447, -187500.02235174447, 0.0, 0.358, -0.976, -0.158, 192.0, 11.0, 48.0, 225.0, 128.0, 251.0, 16.0, 0.0, 0.0, 0.0, 1.677704280536129E9, 0.0, 2023-03-01 12:58:00.536
70.0, 15602.188182137988, 19082.891235696225, 0.0, 0.0, 0.0, -187500.02235174447, -187500.02235174447, 0.0, 0.358, -0.976, -0.158, 192.0, 0.0, 0.0, 0.0, 0.0, 0.0, 0.0, 0.0, 0.0, 0.0, 1.677704280536153E9, 0.0, 2023-03-01 12:58:00.536
71.0, 15606.122089162123, 19076.00689840399, 0.0, 0.0, 0.0, -187500.02235174447, -187500.02235174447, 0.0, 0.358, -0.976, -0.158, 192.0, 0.0, 0.0, 0.0, 0.0, 0.0, 0.0, 0.0, 0.0, 0.0, 1.677704280543068E9, 0.0, 2023-03-01 12:58:00.543
72.0, 15613.56522006574, 19081.036040906434, 0.0, 0.0, 0.0, -187500.02235174447, -187500.02235174447, 0.0, 0.358, -0.976, -0.158, 192.0, 0.0, 0.0, 0.0, 0.0, 0.0, 0.0, 0.0, 0.0, 0.0, 1.677704280543091E9, 0.0, 2023-03-01 12:58:00.543
73.0, 15609.653664786061, 19083.45002930761, 0.0, 0.0, 0.0, -187500.02235174447, -187500.02235174447, 0.0, 0.358, -0.976, -0.158, 192.0, 0.0, 0.0, 0.0, 0.0, 0.0, 0.0, 0.0, 0.0, 0.0, 1.677704280551066E9, 0.0, 2023-03-01 12:58:00.551
74.0, 15610.815955497737, 19078.53264552744, 0.0, 0.0, 0.0, -187500.02235174447, -187500.02235174447, 0.0, 0.358, -0.976, -0.158, 192.0, 0.0, 0.0, 0.0, 0.0, 0.0, 0.0, 0.0, 0.0, 0.0, 1.677704280551084E9, 0.0, 2023-03-01 12:58:00.551
75.0, 15617.23090615641, 19083.785305474437, 0.0, 0.0, 0.0, -187500.02235174447, -187500.02235174447, 0.0, 0.358, -0.976, -0.158, 192.0, 0.0, 0.0, 0.0, 0.0, 0.0, 0.0, 0.0, 0.0, 0.0, 1.677704280558069E9, 0.0, 2023-03-01 12:58:00.558
76.0, 15615.822746255726, 19085.998128175514, 0.0, 0.0, 0.0, -187500.02235174447, -187500.02235174447, 0.0, 0.358, -0.976, -0.158, 192.0, 0.0, 0.0, 0.0, 0.0, 0.0, 0.0, 0.0, 0.0, 0.0, 1.677704280558121E9, 0.0, 2023-03-01 12:58:00.558
77.0, 15624.785795782305, 19094.78236374645, 0.0, 0.0, 0.0, -187500.02235174447, -187500.02235174447, 0.0, 0.358, -0.976, -0.158, 192.0, 0.0, 0.0, 0.0, 0.0, 0.0, 0.0, 0.0, 0.0, 0.0, 1.677704280564565E9, 0.0, 2023-03-01 12:58:00.564
78.0, 15617.342664878686, 19093.68712826814, 0.0, 0.0, 0.0, -187500.02235174447, -187500.02235174447, 0.0, 0.358, -0.976, -0.158, 192.0, 0.0, 0.0, 0.0, 0.0, 0.0, 0.0, 0.0, 0.0, 0.0, 1.677704280564582E9, 0.0, 2023-03-01 12:58:00.564
79.0, 15614.951028221969, 19083.67354675216, 0.0, 0.0, 0.0, -187500.02235174447, -187500.02235174447, 0.0, 0.356, -0.974, -0.156, 192.0, 11.0, 32.0, 225.0, 144.0, 251.0, 32.0, 0.0, 0.0, 0.0, 1.677704280572757E9, 0.0, 2023-03-01 12:58:00.572
80.0, 15613.274647387821, 19077.459761793587, 0.0, 0.0, 0.0, -187500.02235174447, -187500.02235174447, 0.0, 0.356, -0.974, -0.156, 192.0, 0.0, 0.0, 0.0, 0.0, 0.0, 0.0, 0.0, 0.0, 0.0, 1.677704280580697E9, 0.0, 2023-03-01 12:58:00.580
81.0, 15618.929638735013, 19082.980642674047, 0.0, 0.0, 0.0, -187500.02235174447, -187500.02235174447, 0.0, 0.356, -0.974, -0.156, 192.0, 0.0, 0.0, 0.0, 0.0, 0.0, 0.0, 0.0, 0.0, 0.0, 1.677704280580715E9, 0.0, 2023-03-01 12:58:00.580
82.0, 15613.654627043561, 19084.835837463837, 0.0, 0.0, 0.0, -187500.02235174447, -187500.02235174447, 0.0, 0.356, -0.974, -0.156, 192.0, 0.0, 0.0, 0.0, 0.0, 0.0, 0.0, 0.0, 0.0, 0.0, 1.677704280587886E9, 0.0, 2023-03-01 12:58:00.587
83.0, 15611.106528175656, 19079.069087394368, 0.0, 0.0, 0.0, -187500.02235174447, -187500.02235174447, 0.0, 0.356, -0.974, -0.156, 192.0, 0.0, 0.0, 0.0, 0.0, 0.0, 0.0, 0.0, 0.0, 0.0, 1.677704280587914E9, 0.0, 2023-03-01 12:58:00.587
84.0, 15613.90049623257, 19079.71728798357, 0.0, 0.0, 0.0, -187500.02235174447, -187500.02235174447, 0.0, 0.356, -0.974, -0.156, 192.0, 0.0, 0.0, 0.0, 0.0, 0.0, 0.0, 0.0, 0.0, 0.0, 1.677704280595852E9, 0.0, 2023-03-01 12:58:00.595
85.0, 15609.631313041606, 19076.163360615177, 0.0, 0.0, 0.0, -187500.02235174447, -187500.02235174447, 0.0, 0.356, -0.974, -0.156, 192.0, 0.0, 0.0, 0.0, 0.0, 0.0, 0.0, 0.0, 0.0, 0.0, 1.67770428059587E9, 0.0, 2023-03-01 12:58:00.595
86.0, 15607.75376650736, 19076.900968182203, 0.0, 0.0, 0.0, -187500.02235174447, -187500.02235174447, 0.0, 0.356, -0.974, -0.156, 192.0, 0.0, 0.0, 0.0, 0.0, 0.0, 0.0, 0.0, 0.0, 0.0, 1.677704280603342E9, 0.0, 2023-03-01 12:58:00.603
87.0, 15606.904400218058, 19079.225549605555, 0.0, 0.0, 0.0, -187500.02235174447, -187500.02235174447, 0.0, 0.356, -0.974, -0.156, 192.0, 0.0, 0.0, 0.0, 0.0, 0.0, 0.0, 0.0, 0.0, 0.0, 1.677704280603355E9, 0.0, 2023-03-01 12:58:00.603
88.0, 15603.015196682836, 19080.656061250695, 0.0, 0.0, 0.0, -187500.02235174447, -187500.02235174447, 0.0, 0.356, -0.974, -0.156, 192.0, 0.0, 0.0, 0.0, 0.0, 0.0, 0.0, 0.0, 0.0, 0.0, 1.677704280610444E9, 0.0, 2023-03-01 12:58:00.610
89.0, 15604.624522283617, 19077.01272690448, 0.0, 0.0, 0.0, -187500.02235174447, -187500.02235174447, 0.0, 0.34800000000000003, -0.97, -0.158, 192.0, 10.0, 224.0, 225.0, 176.0, 251.0, 16.0, 0.0, 0.0, 0.0, 1.67770428061046E9, 0.0, 2023-03-01 12:58:00.610
90.0, 15610.748900264372, 19081.550131028907, 0.0, 0.0, 0.0, -187500.02235174447, -187500.02235174447, 0.0, 0.34800000000000003, -0.97, -0.158, 192.0, 0.0, 0.0, 0.0, 0.0, 0.0, 0.0, 0.0, 0.0, 0.0, 1.677704280617973E9, 0.0, 2023-03-01 12:58:00.617
91.0, 15618.19203116799, 19089.172075888167, 0.0, 0.0, 0.0, -187500.02235174447, -187500.02235174447, 0.0, 0.34800000000000003, -0.97, -0.158, 192.0, 0.0, 0.0, 0.0, 0.0, 0.0, 0.0, 0.0, 0.0, 0.0, 1.677704280617987E9, 0.0, 2023-03-01 12:58:00.617
92.0, 15617.14149917859, 19089.35088984381, 0.0, 0.0, 0.0, -187500.02235174447, -187500.02235174447, 0.0, 0.34800000000000003, -0.97, -0.158, 192.0, 0.0, 0.0, 0.0, 0.0, 0.0, 0.0, 0.0, 0.0, 0.0, 1.677704280625936E9, 0.0, 2023-03-01 12:58:00.625
93.0, 15624.204650426467, 19093.97770094606, 0.0, 0.0, 0.0, -187500.02235174447, -187500.02235174447, 0.0, 0.34800000000000003, -0.97, -0.158, 192.0, 0.0, 0.0, 0.0, 0.0, 0.0, 0.0, 0.0, 0.0, 0.0, 1.677704280625984E9, 0.0, 2023-03-01 12:58:00.625
94.0, 15620.226039913421, 19089.932035199647, 0.0, 0.0, 0.0, -187500.02235174447, -187500.02235174447, 0.0, 0.34800000000000003, -0.97, -0.158, 192.0, 0.0, 0.0, 0.0, 0.0, 0.0, 0.0, 0.0, 0.0, 0.0, 1.677704280632939E9, 0.0, 2023-03-01 12:58:00.632
95.0, 15617.834403256704, 19086.3557560868, 0.0, 0.0, 0.0, -187500.02235174447, -187500.02235174447, 0.0, 0.34800000000000003, -0.97, -0.158, 192.0, 0.0, 0.0, 0.0, 0.0, 0.0, 0.0, 0.0, 0.0, 0.0, 1.677704280640008E9, 0.0, 2023-03-01 12:58:00.640
96.0, 15619.533135835307, 19091.317843355875, 0.0, 0.0, 0.0, -187500.02235174447, -187500.02235174447, 0.0, 0.34800000000000003, -0.97, -0.158, 192.0, 0.0, 0.0, 0.0, 0.0, 0.0, 0.0, 0.0, 0.0, 0.0, 1.677704280640025E9, 0.0, 2023-03-01 12:58:00.640
97.0, 15619.868412002137, 19089.68616601064, 0.0, 0.0, 0.0, -187500.02235174447, -187500.02235174447, 0.0, 0.34800000000000003, -0.97, -0.158, 192.0, 0.0, 0.0, 0.0, 0.0, 0.0, 0.0, 0.0, 0.0, 0.0, 1.67770428064762E9, 0.0, 2023-03-01 12:58:00.647
98.0, 15618.527307334818, 19088.21095087659, 0.0, 0.0, 0.0, -187500.02235174447, -187500.02235174447, 0.0, 0.34800000000000003, -0.97, -0.158, 192.0, 0.0, 0.0, 0.0, 0.0, 0.0, 0.0, 0.0, 0.0, 0.0, 1.67770428064763E9, 0.0, 2023-03-01 12:58:00.647
99.0, 15618.90728699056, 19092.167209645177, 0.0, 0.0, 0.0, -187500.02235174447, -187500.02235174447, 0.0, 0.35000000000000003, -0.97, -0.16, 192.0, 10.0, 240.0, 225.0, 176.0, 251.0, 0.0, 0.0, 0.0, 0.0, 1.677704280655646E9, 0.0, 2023-03-01 12:58:00.655
100.0, 15626.551583594273, 19103.097212683824, 0.0, 0.0, 0.0, -187500.02235174447, -187500.02235174447, 0.0, 0.35000000000000003, -0.97, -0.16, 192.0, 0.0, 0.0, 0.0, 0.0, 0.0, 0.0, 0.0, 0.0, 0.0, 1.677704280655661E9, 0.0, 2023-03-01 12:58:00.655
101.0, 15624.450519615475, 19098.470401581573, 0.0, 0.0, 0.0, -187500.02235174447, -187500.02235174447, 0.0, 0.35000000000000003, -0.97, -0.16, 192.0, 0.0, 0.0, 0.0, 0.0, 0.0, 0.0, 0.0, 0.0, 0.0, 1.677704280663499E9, 0.0, 2023-03-01 12:58:00.663
102.0, 15627.42330162803, 19093.821238734872, 0.0, 0.0, 0.0, -187500.02235174447, -187500.02235174447, 0.0, 0.35000000000000003, -0.97, -0.16, 192.0, 0.0, 0.0, 0.0, 0.0, 0.0, 0.0, 0.0, 0.0, 0.0, 1.677704280663508E9, 0.0, 2023-03-01 12:58:00.663
103.0, 15620.47190910243, 19087.78626773194, 0.0, 0.0, 0.0, -187500.02235174447, -187500.02235174447, 0.0, 0.35000000000000003, -0.97, -0.16, 192.0, 0.0, 0.0, 0.0, 0.0, 0.0, 0.0, 0.0, 0.0, 0.0, 1.677704280670157E9, 0.0, 2023-03-01 12:58:00.670
104.0, 15620.024874213324, 19083.762953729984, 0.0, 0.0, 0.0, -187500.02235174447, -187500.02235174447, 0.0, 0.35000000000000003, -0.97, -0.16, 192.0, 0.0, 0.0, 0.0, 0.0, 0.0, 0.0, 0.0, 0.0, 0.0, 1.677704280670174E9, 0.0, 2023-03-01 12:58:00.670
105.0, 15617.409720112053, 19084.72407874156, 0.0, 0.0, 0.0, -187500.02235174447, -187500.02235174447, 0.0, 0.35000000000000003, -0.97, -0.16, 192.0, 0.0, 0.0, 0.0, 0.0, 0.0, 0.0, 0.0, 0.0, 0.0, 1.677704280678284E9, 0.0, 2023-03-01 12:58:00.678
106.0, 15615.554525322263, 19077.325651326853, 0.0, 0.0, 0.0, -187500.02235174447, -187500.02235174447, 0.0, 0.35000000000000003, -0.97, -0.16, 192.0, 0.0, 0.0, 0.0, 0.0, 0.0, 0.0, 0.0, 0.0, 0.0, 1.6777042806783E9, 0.0, 2023-03-01 12:58:00.678
107.0, 15609.407795597053, 19072.76589545797, 0.0, 0.0, 0.0, -187500.02235174447, -187500.02235174447, 0.0, 0.35000000000000003, -0.97, -0.16, 192.0, 0.0, 0.0, 0.0, 0.0, 0.0, 0.0, 0.0, 0.0, 0.0, 1.67770428068629E9, 0.0, 2023-03-01 12:58:00.686
108.0, 15609.117222919134, 19080.20902636159, 0.0, 0.0, 0.0, -187500.02235174447, -187500.02235174447, 0.0, 0.35000000000000003, -0.97, -0.16, 192.0, 0.0, 0.0, 0.0, 0.0, 0.0, 0.0, 0.0, 0.0, 0.0, 1.677704280686308E9, 0.0, 2023-03-01 12:58:00.686
109.0, 15627.892688261592, 19099.699747526618, 0.0, 0.0, 0.0, -187500.02235174447, -187500.02235174447, 0.0, 0.354, -0.974, -0.158, 192.0, 11.0, 16.0, 225.0, 144.0, 251.0, 16.0, 0.0, 0.0, 0.0, 1.677704280693297E9, 0.0, 2023-03-01 12:58:00.693
110.0, 15624.47287135993, 19086.1545903867, 0.0, 0.0, 0.0, -187500.02235174447, -187500.02235174447, 0.0, 0.354, -0.974, -0.158, 192.0, 0.0, 0.0, 0.0, 0.0, 0.0, 0.0, 0.0, 0.0, 0.0, 1.677704280699869E9, 0.0, 2023-03-01 12:58:00.699
111.0, 15600.936484448492, 19068.720229711562, 0.0, 0.0, 0.0, -187500.02235174447, -187500.02235174447, 0.0, 0.354, -0.974, -0.158, 192.0, 0.0, 0.0, 0.0, 0.0, 0.0, 0.0, 0.0, 0.0, 0.0, 1.67770428069989E9, 0.0, 2023-03-01 12:58:00.699
112.0, 15601.875257715614, 19072.989412902523, 0.0, 0.0, 0.0, -187500.02235174447, -187500.02235174447, 0.0, 0.354, -0.974, -0.158, 192.0, 0.0, 0.0, 0.0, 0.0, 0.0, 0.0, 0.0, 0.0, 0.0, 1.677704280707818E9, 0.0, 2023-03-01 12:58:00.707
113.0, 15595.728527990404, 19058.505482495486, 0.0, 0.0, 0.0, -187500.02235174447, -187500.02235174447, 0.0, 0.354, -0.974, -0.158, 192.0, 0.0, 0.0, 0.0, 0.0, 0.0, 0.0, 0.0, 0.0, 0.0, 1.677704280707827E9, 0.0, 2023-03-01 12:58:00.707
114.0, 15595.639121012584, 19056.605584216784, 0.0, 0.0, 0.0, -187500.02235174447, -187500.02235174447, 0.0, 0.354, -0.974, -0.158, 192.0, 0.0, 0.0, 0.0, 0.0, 0.0, 0.0, 0.0, 0.0, 0.0, 1.677704280715878E9, 0.0, 2023-03-01 12:58:00.715
115.0, 15598.008405924846, 19068.474360522552, 0.0, 0.0, 0.0, -187500.02235174447, -187500.02235174447, 0.0, 0.354, -0.974, -0.158, 192.0, 0.0, 0.0, 0.0, 0.0, 0.0, 0.0, 0.0, 0.0, 0.0, 1.677704280715902E9, 0.0, 2023-03-01 12:58:00.715
116.0, 15598.500144302863, 19071.15656985719, 0.0, 0.0, 0.0, -187500.02235174447, -187500.02235174447, 0.0, 0.354, -0.974, -0.158, 192.0, 0.0, 0.0, 0.0, 0.0, 0.0, 0.0, 0.0, 0.0, 0.0, 1.677704280722796E9, 0.0, 2023-03-01 12:58:00.722
117.0, 15605.406833339553, 19083.092401396323, 0.0, 0.0, 0.0, -187500.02235174447, -187500.02235174447, 0.0, 0.354, -0.974, -0.158, 192.0, 0.0, 0.0, 0.0, 0.0, 0.0, 0.0, 0.0, 0.0, 0.0, 1.677704280722811E9, 0.0, 2023-03-01 12:58:00.722
118.0, 15599.70713850345, 19071.983584402034, 0.0, 0.0, 0.0, -187500.02235174447, -187500.02235174447, 0.0, 0.354, -0.974, -0.158, 192.0, 0.0, 0.0, 0.0, 0.0, 0.0, 0.0, 0.0, 0.0, 0.0, 1.677704280730407E9, 0.0, 2023-03-01 12:58:00.730
119.0, 15597.963702435936, 19061.657078463686, 0.0, 0.0, 0.0, -187500.02235174447, -187500.02235174447, 0.0, 0.356, -0.97, -0.158, 192.0, 11.0, 32.0, 225.0, 176.0, 251.0, 16.0, 0.0, 0.0, 0.0, 1.677704280730422E9, 0.0, 2023-03-01 12:58:00.730
120.0, 15604.51276356134, 19065.948613399105, 0.0, 0.0, 0.0, -187500.02235174447, -187500.02235174447, 0.0, 0.356, -0.97, -0.158, 192.0, 0.0, 0.0, 0.0, 0.0, 0.0, 0.0, 0.0, 0.0, 0.0, 1.677704280738656E9, 0.0, 2023-03-01 12:58:00.738
121.0, 15598.768365236327, 19070.240148334524, 0.0, 0.0, 0.0, -187500.02235174447, -187500.02235174447, 0.0, 0.356, -0.97, -0.158, 192.0, 0.0, 0.0, 0.0, 0.0, 0.0, 0.0, 0.0, 0.0, 0.0, 1.67770428073867E9, 0.0, 2023-03-01 12:58:00.738
122.0, 15600.936484448492, 19072.989412902523, 0.0, 0.0, 0.0, -187500.02235174447, -187500.02235174447, 0.0, 0.356, -0.97, -0.158, 192.0, 0.0, 0.0, 0.0, 0.0, 0.0, 0.0, 0.0, 0.0, 0.0, 1.677704280746526E9, 0.0, 2023-03-01 12:58:00.746
123.0, 15595.683824501495, 19063.445218020108, 0.0, 0.0, 0.0, -187500.02235174447, -187500.02235174447, 0.0, 0.356, -0.97, -0.158, 192.0, 0.0, 0.0, 0.0, 0.0, 0.0, 0.0, 0.0, 0.0, 0.0, 1.677704280746536E9, 0.0, 2023-03-01 12:58:00.746
124.0, 15592.442821555474, 19053.87867139324, 0.0, 0.0, 0.0, -187500.02235174447, -187500.02235174447, 0.0, 0.356, -0.97, -0.158, 192.0, 0.0, 0.0, 0.0, 0.0, 0.0, 0.0, 0.0, 0.0, 0.0, 1.677704280752655E9, 0.0, 2023-03-01 12:58:00.752
125.0, 15593.448650055963, 19060.159511585178, 0.0, 0.0, 0.0, -187500.02235174447, -187500.02235174447, 0.0, 0.356, -0.97, -0.158, 192.0, 0.0, 0.0, 0.0, 0.0, 0.0, 0.0, 0.0, 0.0, 0.0, 1.67770428076006E9, 0.0, 2023-03-01 12:58:00.760
126.0, 15597.449612313463, 19055.599755716295, 0.0, 0.0, 0.0, -187500.02235174447, -187500.02235174447, 0.0, 0.356, -0.97, -0.158, 192.0, 0.0, 0.0, 0.0, 0.0, 0.0, 0.0, 0.0, 0.0, 0.0, 1.677704280760077E9, 0.0, 2023-03-01 12:58:00.760
127.0, 15595.013272167835, 19051.1964620586, 0.0, 0.0, 0.0, -187500.02235174447, -187500.02235174447, 0.0, 0.356, -0.97, -0.158, 192.0, 0.0, 0.0, 0.0, 0.0, 0.0, 0.0, 0.0, 0.0, 0.0, 1.677704280768225E9, 0.0, 2023-03-01 12:58:00.768
128.0, 15586.385498808088, 19054.48216849353, 0.0, 0.0, 0.0, -187500.02235174447, -187500.02235174447, 0.0, 0.356, -0.97, -0.158, 192.0, 0.0, 0.0, 0.0, 0.0, 0.0, 0.0, 0.0, 0.0, 0.0, 1.677704280768242E9, 0.0, 2023-03-01 12:58:00.768
129.0, 15580.976376649902, 19049.117749824258, 0.0, 0.0, 0.0, -187500.02235174447, -187500.02235174447, 0.0, 0.364, -0.98, -0.158, 192.0, 11.0, 96.0, 225.0, 96.0, 251.0, 16.0, 0.0, 0.0, 0.0, 1.677704280776118E9, 0.0, 2023-03-01 12:58:00.776
130.0, 15580.574045249707, 19043.261592776966, 0.0, 0.0, 0.0, -187500.02235174447, -187500.02235174447, 0.0, 0.364, -0.98, -0.158, 192.0, 0.0, 0.0, 0.0, 0.0, 0.0, 0.0, 0.0, 0.0, 0.0, 1.677704280776134E9, 0.0, 2023-03-01 12:58:00.776
131.0, 15580.641100483073, 19052.694028937105, 0.0, 0.0, 0.0, -187500.02235174447, -187500.02235174447, 0.0, 0.364, -0.98, -0.158, 192.0, 0.0, 0.0, 0.0, 0.0, 0.0, 0.0, 0.0, 0.0, 0.0, 1.677704280782756E9, 0.0, 2023-03-01 12:58:00.782
132.0, 15580.1270103606, 19052.537566725918, 0.0, 0.0, 0.0, -187500.02235174447, -187500.02235174447, 0.0, 0.364, -0.98, -0.158, 192.0, 0.0, 0.0, 0.0, 0.0, 0.0, 0.0, 0.0, 0.0, 0.0, 1.67770428078277E9, 0.0, 2023-03-01 12:58:00.782
133.0, 15583.949158662459, 19062.10411335279, 0.0, 0.0, 0.0, -187500.02235174447, -187500.02235174447, 0.0, 0.364, -0.98, -0.158, 192.0, 0.0, 0.0, 0.0, 0.0, 0.0, 0.0, 0.0, 0.0, 0.0, 1.677704280790843E9, 0.0, 2023-03-01 12:58:00.790
134.0, 15579.858789427137, 19057.477302250543, 0.0, 0.0, 0.0, -187500.02235174447, -187500.02235174447, 0.0, 0.364, -0.98, -0.158, 192.0, 0.0, 0.0, 0.0, 0.0, 0.0, 0.0, 0.0, 0.0, 0.0, 1.677704280790856E9, 0.0, 2023-03-01 12:58:00.790
135.0, 15582.98803365088, 19053.565746970864, 0.0, 0.0, 0.0, -187500.02235174447, -187500.02235174447, 0.0, 0.364, -0.98, -0.158, 192.0, 0.0, 0.0, 0.0, 0.0, 0.0, 0.0, 0.0, 0.0, 0.0, 1.67770428079892E9, 0.0, 2023-03-01 12:58:00.798
136.0, 15582.876274928603, 19048.71541842406, 0.0, 0.0, 0.0, -187500.02235174447, -187500.02235174447, 0.0, 0.364, -0.98, -0.158, 192.0, 0.0, 0.0, 0.0, 0.0, 0.0, 0.0, 0.0, 0.0, 0.0, 1.677704280798936E9, 0.0, 2023-03-01 12:58:00.798
137.0, 15574.360260291132, 19038.120691552245, 0.0, 0.0, 0.0, -187500.02235174447, -187500.02235174447, 0.0, 0.364, -0.98, -0.158, 192.0, 0.0, 0.0, 0.0, 0.0, 0.0, 0.0, 0.0, 0.0, 0.0, 1.677704280805387E9, 0.0, 2023-03-01 12:58:00.805
138.0, 15580.08230687169, 19046.167319556156, 0.0, 0.0, 0.0, -187500.02235174447, -187500.02235174447, 0.0, 0.364, -0.98, -0.158, 192.0, 0.0, 0.0, 0.0, 0.0, 0.0, 0.0, 0.0, 0.0, 0.0, 1.677704280805412E9, 0.0, 2023-03-01 12:58:00.805
139.0, 15590.006481409846, 19058.796055173403, 0.0, 0.0, 0.0, -187500.02235174447, -187500.02235174447, 0.0, 0.364, -0.98, -0.158, 192.0, 0.0, 0.0, 0.0, 0.0, 0.0, 0.0, 0.0, 0.0, 0.0, 1.677704280812401E9, 0.0, 2023-03-01 12:58:00.812
140.0, 15598.880123958603, 19068.899043667203, 0.0, 0.0, 0.0, -187500.02235174447, -187500.02235174447, 0.0, 0.366, -0.972, -0.162, 192.0, 11.0, 112.0, 225.0, 160.0, 250.0, 240.0, 0.0, 0.0, 0.0, 1.677704280812418E9, 0.0, 2023-03-01 12:58:00.812
141.0, 15604.557467050252, 19068.809636689384, 0.0, 0.0, 0.0, -187500.02235174447, -187500.02235174447, 0.0, 0.366, -0.972, -0.162, 192.0, 0.0, 0.0, 0.0, 0.0, 0.0, 0.0, 0.0, 0.0, 0.0, 1.67770428082055E9, 0.0, 2023-03-01 12:58:00.820
142.0, 15602.098775160168, 19065.881558165736, 0.0, 0.0, 0.0, -187500.02235174447, -187500.02235174447, 0.0, 0.366, -0.972, -0.162, 192.0, 0.0, 0.0, 0.0, 0.0, 0.0, 0.0, 0.0, 0.0, 0.0, 1.677704280828399E9, 0.0, 2023-03-01 12:58:00.828
143.0, 15601.830554226704, 19065.233357576533, 0.0, 0.0, 0.0, -187500.02235174447, -187500.02235174447, 0.0, 0.366, -0.972, -0.162, 192.0, 0.0, 0.0, 0.0, 0.0, 0.0, 0.0, 0.0, 0.0, 0.0, 1.677704280828414E9, 0.0, 2023-03-01 12:58:00.828
144.0, 15600.042414670279, 19064.54045349842, 0.0, 0.0, 0.0, -187500.02235174447, -187500.02235174447, 0.0, 0.366, -0.972, -0.162, 192.0, 0.0, 0.0, 0.0, 0.0, 0.0, 0.0, 0.0, 0.0, 0.0, 1.677704280834924E9, 0.0, 2023-03-01 12:58:00.834
145.0, 15597.13668789109, 19062.081761608337, 0.0, 0.0, 0.0, -187500.02235174447, -187500.02235174447, 0.0, 0.366, -0.972, -0.162, 192.0, 0.0, 0.0, 0.0, 0.0, 0.0, 0.0, 0.0, 0.0, 0.0, 1.677704280834933E9, 0.0, 2023-03-01 12:58:00.834
146.0, 15594.56623727873, 19058.907813895683, 0.0, 0.0, 0.0, -187500.02235174447, -187500.02235174447, 0.0, 0.366, -0.972, -0.162, 192.0, 0.0, 0.0, 0.0, 0.0, 0.0, 0.0, 0.0, 0.0, 0.0, 1.677704280843645E9, 0.0, 2023-03-01 12:58:00.843
147.0, 15596.17556287951, 19062.841720919816, 0.0, 0.0, 0.0, -187500.02235174447, -187500.02235174447, 0.0, 0.366, -0.972, -0.162, 192.0, 0.0, 0.0, 0.0, 0.0, 0.0, 0.0, 0.0, 0.0, 0.0, 1.677704280843663E9, 0.0, 2023-03-01 12:58:00.843
148.0, 15599.304807103254, 19071.760066957482, 0.0, 0.0, 0.0, -187500.02235174447, -187500.02235174447, 0.0, 0.366, -0.972, -0.162, 192.0, 0.0, 0.0, 0.0, 0.0, 0.0, 0.0, 0.0, 0.0, 0.0, 1.677704280851186E9, 0.0, 2023-03-01 12:58:00.851
149.0, 15603.082251916201, 19067.714401211073, 0.0, 0.0, 0.0, -187500.02235174447, -187500.02235174447, 0.0, 0.366, -0.972, -0.162, 192.0, 0.0, 0.0, 0.0, 0.0, 0.0, 0.0, 0.0, 0.0, 0.0, 1.677704280851209E9, 0.0, 2023-03-01 12:58:00.851
150.0, 15598.768365236327, 19062.72996219754, 0.0, 0.0, 0.0, -187500.02235174447, -187500.02235174447, 0.0, 0.368, -0.974, -0.158, 192.0, 11.0, 128.0, 225.0, 144.0, 251.0, 16.0, 0.0, 0.0, 0.0, 1.677704280858157E9, 0.0, 2023-03-01 12:58:00.858
151.0, 15590.341757576676, 19061.366505785765, 0.0, 0.0, 0.0, -187500.02235174447, -187500.02235174447, 0.0, 0.368, -0.974, -0.158, 192.0, 0.0, 0.0, 0.0, 0.0, 0.0, 0.0, 0.0, 0.0, 0.0, 1.677704280858177E9, 0.0, 2023-03-01 12:58:00.858
152.0, 15594.052147156257, 19062.975831386546, 0.0, 0.0, 0.0, -187500.02235174447, -187500.02235174447, 0.0, 0.368, -0.974, -0.158, 192.0, 0.0, 0.0, 0.0, 0.0, 0.0, 0.0, 0.0, 0.0, 0.0, 1.67770428086557E9, 0.0, 2023-03-01 12:58:00.865
153.0, 15591.436993054986, 19071.313032068378, 0.0, 0.0, 0.0, -187500.02235174447, -187500.02235174447, 0.0, 0.368, -0.974, -0.158, 192.0, 0.0, 0.0, 0.0, 0.0, 0.0, 0.0, 0.0, 0.0, 0.0, 1.67770428086559E9, 0.0, 2023-03-01 12:58:00.865
154.0, 15598.634254769595, 19072.38591580223, 0.0, 0.0, 0.0, -187500.02235174447, -187500.02235174447, 0.0, 0.368, -0.974, -0.158, 192.0, 0.0, 0.0, 0.0, 0.0, 0.0, 0.0, 0.0, 0.0, 0.0, 1.677704280873651E9, 0.0, 2023-03-01 12:58:00.873
155.0, 15594.119202389624, 19062.551148241895, 0.0, 0.0, 0.0, -187500.02235174447, -187500.02235174447, 0.0, 0.368, -0.974, -0.158, 192.0, 0.0, 0.0, 0.0, 0.0, 0.0, 0.0, 0.0, 0.0, 0.0, 1.677704280873667E9, 0.0, 2023-03-01 12:58:00.873
156.0, 15594.32036808972, 19067.714401211073, 0.0, 0.0, 0.0, -187500.02235174447, -187500.02235174447, 0.0, 0.368, -0.974, -0.158, 192.0, 0.0, 0.0, 0.0, 0.0, 0.0, 0.0, 0.0, 0.0, 0.0, 1.677704280880712E9, 0.0, 2023-03-01 12:58:00.880
157.0, 15594.208609367444, 19068.094380866813, 0.0, 0.0, 0.0, -187500.02235174447, -187500.02235174447, 0.0, 0.368, -0.974, -0.158, 192.0, 0.0, 0.0, 0.0, 0.0, 0.0, 0.0, 0.0, 0.0, 0.0, 1.677704280887649E9, 0.0, 2023-03-01 12:58:00.887
158.0, 15595.080327401201, 19066.306241310387, 0.0, 0.0, 0.0, -187500.02235174447, -187500.02235174447, 0.0, 0.368, -0.974, -0.158, 192.0, 0.0, 0.0, 0.0, 0.0, 0.0, 0.0, 0.0, 0.0, 0.0, 1.677704280887695E9, 0.0, 2023-03-01 12:58:00.887
159.0, 15595.437955312485, 19064.942784898616, 0.0, 0.0, 0.0, -187500.02235174447, -187500.02235174447, 0.0, 0.368, -0.974, -0.158, 192.0, 0.0, 0.0, 0.0, 0.0, 0.0, 0.0, 0.0, 0.0, 0.0, 1.677704280895478E9, 0.0, 2023-03-01 12:58:00.895
160.0, 15590.185295365489, 19061.92529939715, 0.0, 0.0, 0.0, -187500.02235174447, -187500.02235174447, 0.0, 0.366, -0.964, -0.154, 192.0, 11.0, 112.0, 225.0, 224.0, 251.0, 48.0, 0.0, 0.0, 0.0, 1.677704280895503E9, 0.0, 2023-03-01 12:58:00.895
161.0, 15589.045356398268, 19064.33928779832, 0.0, 0.0, 0.0, -187500.02235174447, -187500.02235174447, 0.0, 0.366, -0.964, -0.154, 192.0, 0.0, 0.0, 0.0, 0.0, 0.0, 0.0, 0.0, 0.0, 0.0, 1.677704280903448E9, 0.0, 2023-03-01 12:58:00.903
162.0, 15585.379670307599, 19061.0982848523, 0.0, 0.0, 0.0, -187500.02235174447, -187500.02235174447, 0.0, 0.366, -0.964, -0.154, 192.0, 0.0, 0.0, 0.0, 0.0, 0.0, 0.0, 0.0, 0.0, 0.0, 1.677704280903467E9, 0.0, 2023-03-01 12:58:00.903
163.0, 15582.98803365088, 19052.537566725918, 0.0, 0.0, 0.0, -187500.02235174447, -187500.02235174447, 0.0, 0.366, -0.964, -0.154, 192.0, 0.0, 0.0, 0.0, 0.0, 0.0, 0.0, 0.0, 0.0, 0.0, 1.677704280911309E9, 0.0, 2023-03-01 12:58:00.911
164.0, 15586.832533697194, 19055.555052227384, 0.0, 0.0, 0.0, -187500.02235174447, -187500.02235174447, 0.0, 0.366, -0.964, -0.154, 192.0, 0.0, 0.0, 0.0, 0.0, 0.0, 0.0, 0.0, 0.0, 0.0, 1.67770428091132E9, 0.0, 2023-03-01 12:58:00.911
165.0, 15587.100754630657, 19062.193520330613, 0.0, 0.0, 0.0, -187500.02235174447, -187500.02235174447, 0.0, 0.366, -0.964, -0.154, 192.0, 0.0, 0.0, 0.0, 0.0, 0.0, 0.0, 0.0, 0.0, 0.0, 1.677704280917967E9, 0.0, 2023-03-01 12:58:00.917
166.0, 15586.787830208283, 19060.62889821874, 0.0, 0.0, 0.0, -187500.02235174447, -187500.02235174447, 0.0, 0.366, -0.964, -0.154, 192.0, 0.0, 0.0, 0.0, 0.0, 0.0, 0.0, 0.0, 0.0, 0.0, 1.677704280917981E9, 0.0, 2023-03-01 12:58:00.917
167.0, 15587.458382541941, 19054.146892326702, 0.0, 0.0, 0.0, -187500.02235174447, -187500.02235174447, 0.0, 0.366, -0.964, -0.154, 192.0, 0.0, 0.0, 0.0, 0.0, 0.0, 0.0, 0.0, 0.0, 0.0, 1.677704280926036E9, 0.0, 2023-03-01 12:58:00.926
168.0, 15591.816972710727, 19063.311107553378, 0.0, 0.0, 0.0, -187500.02235174447, -187500.02235174447, 0.0, 0.366, -0.964, -0.154, 192.0, 0.0, 0.0, 0.0, 0.0, 0.0, 0.0, 0.0, 0.0, 0.0, 1.677704280926047E9, 0.0, 2023-03-01 12:58:00.926
169.0, 15592.286359344287, 19069.323726811854, 0.0, 0.0, 0.0, -187500.02235174447, -187500.02235174447, 0.0, 0.366, -0.964, -0.154, 192.0, 0.0, 0.0, 0.0, 0.0, 0.0, 0.0, 0.0, 0.0, 0.0, 1.677704280934034E9, 0.0, 2023-03-01 12:58:00.934
170.0, 15584.08326912919, 19053.319877781854, 0.0, 0.0, 0.0, -187500.02235174447, -187500.02235174447, 0.0, 0.374, -0.968, -0.15, 192.0, 11.0, 176.0, 225.0, 192.0, 251.0, 80.0, 0.0, 0.0, 0.0, 1.67770428093405E9, 0.0, 2023-03-01 12:58:00.934
171.0, 15581.870446428115, 19050.660020191674, 0.0, 0.0, 0.0, -187500.02235174447, -187500.02235174447, 0.0, 0.374, -0.968, -0.15, 192.0, 0.0, 0.0, 0.0, 0.0, 0.0, 0.0, 0.0, 0.0, 0.0, 1.677704280940891E9, 0.0, 2023-03-01 12:58:00.940
172.0, 15585.46907728542, 19049.274212035445, 0.0, 0.0, 0.0, -187500.02235174447, -187500.02235174447, 0.0, 0.374, -0.968, -0.15, 192.0, 0.0, 0.0, 0.0, 0.0, 0.0, 0.0, 0.0, 0.0, 0.0, 1.677704280947628E9, 0.0, 2023-03-01 12:58:00.947
173.0, 15585.402022052054, 19048.268383534956, 0.0, 0.0, 0.0, -187500.02235174447, -187500.02235174447, 0.0, 0.374, -0.968, -0.15, 192.0, 0.0, 0.0, 0.0, 0.0, 0.0, 0.0, 0.0, 0.0, 0.0, 1.677704280947645E9, 0.0, 2023-03-01 12:58:00.947
174.0, 15577.690670214972, 19050.548261469397, 0.0, 0.0, 0.0, -187500.02235174447, -187500.02235174447, 0.0, 0.374, -0.968, -0.15, 192.0, 0.0, 0.0, 0.0, 0.0, 0.0, 0.0, 0.0, 0.0, 0.0, 1.677704280955642E9, 0.0, 2023-03-01 12:58:00.955
175.0, 15579.299995815754, 19050.704723680585, 0.0, 0.0, 0.0, -187500.02235174447, -187500.02235174447, 0.0, 0.374, -0.968, -0.15, 192.0, 0.0, 0.0, 0.0, 0.0, 0.0, 0.0, 0.0, 0.0, 0.0, 1.677704280955656E9, 0.0, 2023-03-01 12:58:00.955
176.0, 15583.479772028897, 19054.281002793432, 0.0, 0.0, 0.0, -187500.02235174447, -187500.02235174447, 0.0, 0.374, -0.968, -0.15, 192.0, 0.0, 0.0, 0.0, 0.0, 0.0, 0.0, 0.0, 0.0, 0.0, 1.677704280963548E9, 0.0, 2023-03-01 12:58:00.963
177.0, 15582.920978417515, 19050.883537636226, 0.0, 0.0, 0.0, -187500.02235174447, -187500.02235174447, 0.0, 0.374, -0.968, -0.15, 192.0, 0.0, 0.0, 0.0, 0.0, 0.0, 0.0, 0.0, 0.0, 0.0, 1.677704280963561E9, 0.0, 2023-03-01 12:58:00.963
178.0, 15588.531266275797, 19050.481206236032, 0.0, 0.0, 0.0, -187500.02235174447, -187500.02235174447, 0.0, 0.374, -0.968, -0.15, 192.0, 0.0, 0.0, 0.0, 0.0, 0.0, 0.0, 0.0, 0.0, 0.0, 1.677704280970613E9, 0.0, 2023-03-01 12:58:00.970
179.0, 15583.70328947345, 19050.928241125137, 0.0, 0.0, 0.0, -187500.02235174447, -187500.02235174447, 0.0, 0.374, -0.968, -0.15, 192.0, 0.0, 0.0, 0.0, 0.0, 0.0, 0.0, 0.0, 0.0, 0.0, 1.677704280970626E9, 0.0, 2023-03-01 12:58:00.970
180.0, 15582.31748131722, 19052.02347660345, 0.0, 0.0, 0.0, -187500.02235174447, -187500.02235174447, 0.0, 0.366, -0.966, -0.14400000000000002, 192.0, 11.0, 112.0, 225.0, 208.0, 251.0, 128.0, 0.0, 0.0, 0.0, 1.677704280978303E9, 0.0, 2023-03-01 12:58:00.978
181.0, 15581.80339119475, 19055.77856967194, 0.0, 0.0, 0.0, -187500.02235174447, -187500.02235174447, 0.0, 0.366, -0.966, -0.14400000000000002, 192.0, 0.0, 0.0, 0.0, 0.0, 0.0, 0.0, 0.0, 0.0, 0.0, 1.677704280978325E9, 0.0, 2023-03-01 12:58:00.978
182.0, 15580.596396994162, 19056.96321212807, 0.0, 0.0, 0.0, -187500.02235174447, -187500.02235174447, 0.0, 0.366, -0.966, -0.14400000000000002, 192.0, 0.0, 0.0, 0.0, 0.0, 0.0, 0.0, 0.0, 0.0, 0.0, 1.6777042809863E9, 0.0, 2023-03-01 12:58:00.986
183.0, 15577.444801025964, 19042.032246831925, 0.0, 0.0, 0.0, -187500.02235174447, -187500.02235174447, 0.0, 0.366, -0.966, -0.14400000000000002, 192.0, 0.0, 0.0, 0.0, 0.0, 0.0, 0.0, 0.0, 0.0, 0.0, 1.677704280986315E9, 0.0, 2023-03-01 12:58:00.986
184.0, 15576.327213803199, 19043.57451719934, 0.0, 0.0, 0.0, -187500.02235174447, -187500.02235174447, 0.0, 0.366, -0.966, -0.14400000000000002, 192.0, 0.0, 0.0, 0.0, 0.0, 0.0, 0.0, 0.0, 0.0, 0.0, 1.677704280993302E9, 0.0, 2023-03-01 12:58:00.993
185.0, 15571.208664322934, 19048.33543876832, 0.0, 0.0, 0.0, -187500.02235174447, -187500.02235174447, 0.0, 0.366, -0.966, -0.14400000000000002, 192.0, 0.0, 0.0, 0.0, 0.0, 0.0, 0.0, 0.0, 0.0, 0.0, 1.677704280993317E9, 0.0, 2023-03-01 12:58:00.993
186.0, 15575.142571347067, 19049.788302157915, 0.0, 0.0, 0.0, -187500.02235174447, -187500.02235174447, 0.0, 0.366, -0.966, -0.14400000000000002, 192.0, 0.0, 0.0, 0.0, 0.0, 0.0, 0.0, 0.0, 0.0, 0.0, 1.677704280999936E9, 0.0, 2023-03-01 12:58:00.999
187.0, 15574.203798079945, 19046.167319556156, 0.0, 0.0, 0.0, -187500.02235174447, -187500.02235174447, 0.0, 0.366, -0.966, -0.14400000000000002, 192.0, 0.0, 0.0, 0.0, 0.0, 0.0, 0.0, 0.0, 0.0, 0.0, 1.677704281007785E9, 0.0, 2023-03-01 12:58:01.007
188.0, 15573.868521913115, 19044.088607321813, 0.0, 0.0, 0.0, -187500.02235174447, -187500.02235174447, 0.0, 0.366, -0.966, -0.14400000000000002, 192.0, 0.0, 0.0, 0.0, 0.0, 0.0, 0.0, 0.0, 0.0, 0.0, 1.677704281007798E9, 0.0, 2023-03-01 12:58:01.007
189.0, 15569.755800933339, 19039.350037497286, 0.0, 0.0, 0.0, -187500.02235174447, -187500.02235174447, 0.0, 0.366, -0.966, -0.14400000000000002, 192.0, 0.0, 0.0, 0.0, 0.0, 0.0, 0.0, 0.0, 0.0, 0.0, 1.677704281015942E9, 0.0, 2023-03-01 12:58:01.015
190.0, 15574.002632379847, 19044.468586977553, 0.0, 0.0, 0.0, -187500.02235174447, -187500.02235174447, 0.0, 0.37, -0.972, -0.152, 192.0, 11.0, 144.0, 225.0, 160.0, 251.0, 64.0, 0.0, 0.0, 0.0, 1.677704281015985E9, 0.0, 2023-03-01 12:58:01.015
191.0, 15575.544902747262, 19051.688200436616, 0.0, 0.0, 0.0, -187500.02235174447, -187500.02235174447, 0.0, 0.37, -0.972, -0.152, 192.0, 0.0, 0.0, 0.0, 0.0, 0.0, 0.0, 0.0, 0.0, 0.0, 1.677704281023127E9, 0.0, 2023-03-01 12:58:01.023
192.0, 15582.920978417515, 19056.605584216784, 0.0, 0.0, 0.0, -187500.02235174447, -187500.02235174447, 0.0, 0.37, -0.972, -0.152, 192.0, 0.0, 0.0, 0.0, 0.0, 0.0, 0.0, 0.0, 0.0, 0.0, 1.677704281023152E9, 0.0, 2023-03-01 12:58:01.023
193.0, 15583.099792373157, 19053.38693301522, 0.0, 0.0, 0.0, -187500.02235174447, -187500.02235174447, 0.0, 0.37, -0.972, -0.152, 192.0, 0.0, 0.0, 0.0, 0.0, 0.0, 0.0, 0.0, 0.0, 0.0, 1.677704281030488E9, 0.0, 2023-03-01 12:58:01.030
194.0, 15582.965681906426, 19054.504520237984, 0.0, 0.0, 0.0, -187500.02235174447, -187500.02235174447, 0.0, 0.37, -0.972, -0.152, 192.0, 0.0, 0.0, 0.0, 0.0, 0.0, 0.0, 0.0, 0.0, 0.0, 1.677704281030503E9, 0.0, 2023-03-01 12:58:01.030
195.0, 15579.545865004762, 19044.356828255277, 0.0, 0.0, 0.0, -187500.02235174447, -187500.02235174447, 0.0, 0.37, -0.972, -0.152, 192.0, 0.0, 0.0, 0.0, 0.0, 0.0, 0.0, 0.0, 0.0, 0.0, 1.677704281038468E9, 0.0, 2023-03-01 12:58:01.038
196.0, 15568.504103243842, 19035.550240939887, 0.0, 0.0, 0.0, -187500.02235174447, -187500.02235174447, 0.0, 0.37, -0.972, -0.152, 192.0, 0.0, 0.0, 0.0, 0.0, 0.0, 0.0, 0.0, 0.0, 0.0, 1.677704281038486E9, 0.0, 2023-03-01 12:58:01.038
197.0, 15575.366088791621, 19045.697932922594, 0.0, 0.0, 0.0, -187500.02235174447, -187500.02235174447, 0.0, 0.37, -0.972, -0.152, 192.0, 0.0, 0.0, 0.0, 0.0, 0.0, 0.0, 0.0, 0.0, 0.0, 1.677704281046583E9, 0.0, 2023-03-01 12:58:01.046
198.0, 15581.110487116634, 19052.42580800364, 0.0, 0.0, 0.0, -187500.02235174447, -187500.02235174447, 0.0, 0.37, -0.972, -0.152, 192.0, 0.0, 0.0, 0.0, 0.0, 0.0, 0.0, 0.0, 0.0, 0.0, 1.677704281046595E9, 0.0, 2023-03-01 12:58:01.046
199.0, 15586.005519152346, 19057.611412717273, 0.0, 0.0, 0.0, -187500.02235174447, -187500.02235174447, 0.0, 0.37, -0.972, -0.152, 192.0, 0.0, 0.0, 0.0, 0.0, 0.0, 0.0, 0.0, 0.0, 0.0, 1.677704281053123E9, 0.0, 2023-03-01 12:58:01.053
200.0, 15579.434106282486, 19052.179938814636, 0.0, 0.0, 0.0, -187500.02235174447, -187500.02235174447, 0.0, 0.364, -0.98, -0.152, 192.0, 11.0, 96.0, 225.0, 96.0, 251.0, 64.0, 0.0, 0.0, 0.0, 1.677704281053137E9, 0.0, 2023-03-01 12:58:01.053
201.0, 15577.333042303688, 19061.25474706349, 0.0, 0.0, 0.0, -187500.02235174447, -187500.02235174447, 0.0, 0.364, -0.98, -0.152, 192.0, 0.0, 0.0, 0.0, 0.0, 0.0, 0.0, 0.0, 0.0, 0.0, 1.677704281060033E9, 0.0, 2023-03-01 12:58:01.060
202.0, 15577.578911492696, 19057.2984882949, 0.0, 0.0, 0.0, -187500.02235174447, -187500.02235174447, 0.0, 0.364, -0.98, -0.152, 192.0, 0.0, 0.0, 0.0, 0.0, 0.0, 0.0, 0.0, 0.0, 0.0, 1.677704281060042E9, 0.0, 2023-03-01 12:58:01.060
203.0, 15572.102734101145, 19043.663924177163, 0.0, 0.0, 0.0, -187500.02235174447, -187500.02235174447, 0.0, 0.364, -0.98, -0.152, 192.0, 0.0, 0.0, 0.0, 0.0, 0.0, 0.0, 0.0, 0.0, 0.0, 1.67770428106811E9, 0.0, 2023-03-01 12:58:01.068
204.0, 15573.376783535097, 19040.065293319858, 0.0, 0.0, 0.0, -187500.02235174447, -187500.02235174447, 0.0, 0.364, -0.98, -0.152, 192.0, 0.0, 0.0, 0.0, 0.0, 0.0, 0.0, 0.0, 0.0, 0.0, 1.677704281076092E9, 0.0, 2023-03-01 12:58:01.076
205.0, 15569.107600344134, 19043.887441621715, 0.0, 0.0, 0.0, -187500.02235174447, -187500.02235174447, 0.0, 0.364, -0.98, -0.152, 192.0, 0.0, 0.0, 0.0, 0.0, 0.0, 0.0, 0.0, 0.0, 0.0, 1.677704281076107E9, 0.0, 2023-03-01 12:58:01.076
206.0, 15572.929748645993, 19043.10513056578, 0.0, 0.0, 0.0, -187500.02235174447, -187500.02235174447, 0.0, 0.364, -0.98, -0.152, 192.0, 0.0, 0.0, 0.0, 0.0, 0.0, 0.0, 0.0, 0.0, 0.0, 1.677704281082856E9, 0.0, 2023-03-01 12:58:01.082
207.0, 15573.645004468563, 19044.356828255277, 0.0, 0.0, 0.0, -187500.02235174447, -187500.02235174447, 0.0, 0.364, -0.98, -0.152, 192.0, 0.0, 0.0, 0.0, 0.0, 0.0, 0.0, 0.0, 0.0, 0.0, 1.67770428108287E9, 0.0, 2023-03-01 12:58:01.082
208.0, 15572.080382356691, 19046.770816656448, 0.0, 0.0, 0.0, -187500.02235174447, -187500.02235174447, 0.0, 0.364, -0.98, -0.152, 192.0, 0.0, 0.0, 0.0, 0.0, 0.0, 0.0, 0.0, 0.0, 0.0, 1.677704281090832E9, 0.0, 2023-03-01 12:58:01.090
209.0, 15574.89670215806, 19047.553127712385, 0.0, 0.0, 0.0, -187500.02235174447, -187500.02235174447, 0.0, 0.364, -0.98, -0.152, 192.0, 0.0, 0.0, 0.0, 0.0, 0.0, 0.0, 0.0, 0.0, 0.0, 1.677704281090844E9, 0.0, 2023-03-01 12:58:01.090
210.0, 15573.667356213016, 19043.596868943798, 0.0, 0.0, 0.0, -187500.02235174447, -187500.02235174447, 0.0, 0.364, -0.98, -0.152, 192.0, 0.0, 0.0, 0.0, 0.0, 0.0, 0.0, 0.0, 0.0, 0.0, 1.677704281098726E9, 0.0, 2023-03-01 12:58:01.098
211.0, 15570.225187566899, 19041.652267176185, 0.0, 0.0, 0.0, -187500.02235174447, -187500.02235174447, 0.0, 0.368, -0.976, -0.15, 192.0, 11.0, 128.0, 225.0, 128.0, 251.0, 80.0, 0.0, 0.0, 0.0, 1.677704281098738E9, 0.0, 2023-03-01 12:58:01.098
212.0, 15567.744143932361, 19041.652267176185, 0.0, 0.0, 0.0, -187500.02235174447, -187500.02235174447, 0.0, 0.368, -0.976, -0.15, 192.0, 0.0, 0.0, 0.0, 0.0, 0.0, 0.0, 0.0, 0.0, 0.0, 1.677704281105853E9, 0.0, 2023-03-01 12:58:01.105
213.0, 15564.257271797333, 19035.036150817414, 0.0, 0.0, 0.0, -187500.02235174447, -187500.02235174447, 0.0, 0.368, -0.976, -0.15, 192.0, 0.0, 0.0, 0.0, 0.0, 0.0, 0.0, 0.0, 0.0, 0.0, 1.677704281105862E9, 0.0, 2023-03-01 12:58:01.105
214.0, 15571.655699212039, 19037.561897940865, 0.0, 0.0, 0.0, -187500.02235174447, -187500.02235174447, 0.0, 0.368, -0.976, -0.15, 192.0, 0.0, 0.0, 0.0, 0.0, 0.0, 0.0, 0.0, 0.0, 0.0, 1.677704281113442E9, 0.0, 2023-03-01 12:58:01.113
215.0, 15571.521588745307, 19045.38500850022, 0.0, 0.0, 0.0, -187500.02235174447, -187500.02235174447, 0.0, 0.368, -0.976, -0.15, 192.0, 0.0, 0.0, 0.0, 0.0, 0.0, 0.0, 0.0, 0.0, 0.0, 1.677704281113459E9, 0.0, 2023-03-01 12:58:01.113
216.0, 15570.091077100167, 19042.322819509845, 0.0, 0.0, 0.0, -187500.02235174447, -187500.02235174447, 0.0, 0.368, -0.976, -0.15, 192.0, 0.0, 0.0, 0.0, 0.0, 0.0, 0.0, 0.0, 0.0, 0.0, 1.677704281121388E9, 0.0, 2023-03-01 12:58:01.121
217.0, 15563.206739807933, 19034.09737755029, 0.0, 0.0, 0.0, -187500.02235174447, -187500.02235174447, 0.0, 0.368, -0.976, -0.15, 192.0, 0.0, 0.0, 0.0, 0.0, 0.0, 0.0, 0.0, 0.0, 0.0, 1.677704281121407E9, 0.0, 2023-03-01 12:58:01.121
218.0, 15561.03862059577, 19038.76889214145, 0.0, 0.0, 0.0, -187500.02235174447, -187500.02235174447, 0.0, 0.368, -0.976, -0.15, 192.0, 0.0, 0.0, 0.0, 0.0, 0.0, 0.0, 0.0, 0.0, 0.0, 1.677704281128415E9, 0.0, 2023-03-01 12:58:01.128
219.0, 15569.420524766509, 19038.47831946353, 0.0, 0.0, 0.0, -187500.02235174447, -187500.02235174447, 0.0, 0.368, -0.976, -0.15, 192.0, 0.0, 0.0, 0.0, 0.0, 0.0, 0.0, 0.0, 0.0, 0.0, 1.677704281135613E9, 0.0, 2023-03-01 12:58:01.135
220.0, 15572.639175968074, 19040.10999680877, 0.0, 0.0, 0.0, -187500.02235174447, -187500.02235174447, 0.0, 0.368, -0.976, -0.15, 192.0, 0.0, 0.0, 0.0, 0.0, 0.0, 0.0, 0.0, 0.0, 0.0, 1.677704281135624E9, 0.0, 2023-03-01 12:58:01.135
221.0, 15576.37191729211, 19048.96128761307, 0.0, 0.0, 0.0, -187500.02235174447, -187500.02235174447, 0.0, 0.368, -0.976, -0.152, 192.0, 11.0, 128.0, 225.0, 128.0, 251.0, 64.0, 0.0, 0.0, 0.0, 1.677704281143085E9, 0.0, 2023-03-01 12:58:01.143
222.0, 15577.377745792599, 19055.331534782832, 0.0, 0.0, 0.0, -187500.02235174447, -187500.02235174447, 0.0, 0.368, -0.976, -0.152, 192.0, 0.0, 0.0, 0.0, 0.0, 0.0, 0.0, 0.0, 0.0, 0.0, 1.677704281143097E9, 0.0, 2023-03-01 12:58:01.143
223.0, 15585.379670307599, 19061.81354067487, 0.0, 0.0, 0.0, -187500.02235174447, -187500.02235174447, 0.0, 0.368, -0.976, -0.152, 192.0, 0.0, 0.0, 0.0, 0.0, 0.0, 0.0, 0.0, 0.0, 0.0, 1.67770428115104E9, 0.0, 2023-03-01 12:58:01.151
224.0, 15573.667356213016, 19049.028342846435, 0.0, 0.0, 0.0, -187500.02235174447, -187500.02235174447, 0.0, 0.368, -0.976, -0.152, 192.0, 0.0, 0.0, 0.0, 0.0, 0.0, 0.0, 0.0, 0.0, 0.0, 1.677704281151059E9, 0.0, 2023-03-01 12:58:01.151
225.0, 15571.476885256398, 19043.753331154985, 0.0, 0.0, 0.0, -187500.02235174447, -187500.02235174447, 0.0, 0.368, -0.976, -0.152, 192.0, 0.0, 0.0, 0.0, 0.0, 0.0, 0.0, 0.0, 0.0, 0.0, 1.677704281158155E9, 0.0, 2023-03-01 12:58:01.158
226.0, 15575.567254491718, 19043.932145110626, 0.0, 0.0, 0.0, -187500.02235174447, -187500.02235174447, 0.0, 0.368, -0.976, -0.152, 192.0, 0.0, 0.0, 0.0, 0.0, 0.0, 0.0, 0.0, 0.0, 0.0, 1.67770428115817E9, 0.0, 2023-03-01 12:58:01.158
227.0, 15573.08621085718, 19045.988505600515, 0.0, 0.0, 0.0, -187500.02235174447, -187500.02235174447, 0.0, 0.368, -0.976, -0.152, 192.0, 0.0, 0.0, 0.0, 0.0, 0.0, 0.0, 0.0, 0.0, 0.0, 1.677704281165837E9, 0.0, 2023-03-01 12:58:01.165
228.0, 15574.762591691328, 19049.251860290988, 0.0, 0.0, 0.0, -187500.02235174447, -187500.02235174447, 0.0, 0.368, -0.976, -0.152, 192.0, 0.0, 0.0, 0.0, 0.0, 0.0, 0.0, 0.0, 0.0, 0.0, 1.677704281165854E9, 0.0, 2023-03-01 12:58:01.165
229.0, 15567.878254399093, 19037.696008407594, 0.0, 0.0, 0.0, -187500.02235174447, -187500.02235174447, 0.0, 0.368, -0.976, -0.152, 192.0, 0.0, 0.0, 0.0, 0.0, 0.0, 0.0, 0.0, 0.0, 0.0, 1.677704281173791E9, 0.0, 2023-03-01 12:58:01.173
230.0, 15577.020117881313, 19051.978773114537, 0.0, 0.0, 0.0, -187500.02235174447, -187500.02235174447, 0.0, 0.368, -0.976, -0.152, 192.0, 0.0, 0.0, 0.0, 0.0, 0.0, 0.0, 0.0, 0.0, 0.0, 1.677704281173808E9, 0.0, 2023-03-01 12:58:01.173
231.0, 15583.949158662459, 19059.354848784787, 0.0, 0.0, 0.0, -187500.02235174447, -187500.02235174447, 0.0, 0.368, -0.976, -0.156, 192.0, 11.0, 128.0, 225.0, 128.0, 251.0, 32.0, 0.0, 0.0, 0.0, 1.677704281181672E9, 0.0, 2023-03-01 12:58:01.181
232.0, 15583.502123773353, 19059.980697629537, 0.0, 0.0, 0.0, -187500.02235174447, -187500.02235174447, 0.0, 0.368, -0.976, -0.156, 192.0, 0.0, 0.0, 0.0, 0.0, 0.0, 0.0, 0.0, 0.0, 0.0, 1.677704281181688E9, 0.0, 2023-03-01 12:58:01.181
233.0, 15573.332080046188, 19051.06235159187, 0.0, 0.0, 0.0, -187500.02235174447, -187500.02235174447, 0.0, 0.368, -0.976, -0.156, 192.0, 0.0, 0.0, 0.0, 0.0, 0.0, 0.0, 0.0, 0.0, 0.0, 1.677704281187919E9, 0.0, 2023-03-01 12:58:01.187
234.0, 15573.488542257375, 19049.67654343564, 0.0, 0.0, 0.0, -187500.02235174447, -187500.02235174447, 0.0, 0.368, -0.976, -0.156, 192.0, 0.0, 0.0, 0.0, 0.0, 0.0, 0.0, 0.0, 0.0, 0.0, 1.677704281195316E9, 0.0, 2023-03-01 12:58:01.195
235.0, 15573.175617835, 19047.91075562367, 0.0, 0.0, 0.0, -187500.02235174447, -187500.02235174447, 0.0, 0.368, -0.976, -0.156, 192.0, 0.0, 0.0, 0.0, 0.0, 0.0, 0.0, 0.0, 0.0, 0.0, 1.67770428119533E9, 0.0, 2023-03-01 12:58:01.195
236.0, 15570.091077100167, 19046.90492712318, 0.0, 0.0, 0.0, -187500.02235174447, -187500.02235174447, 0.0, 0.368, -0.976, -0.156, 192.0, 0.0, 0.0, 0.0, 0.0, 0.0, 0.0, 0.0, 0.0, 0.0, 1.677704281203379E9, 0.0, 2023-03-01 12:58:01.203
237.0, 15569.84520791116, 19046.346133511797, 0.0, 0.0, 0.0, -187500.02235174447, -187500.02235174447, 0.0, 0.368, -0.976, -0.156, 192.0, 0.0, 0.0, 0.0, 0.0, 0.0, 0.0, 0.0, 0.0, 0.0, 1.677704281203401E9, 0.0, 2023-03-01 12:58:01.203
238.0, 15573.153266090545, 19048.044866090404, 0.0, 0.0, 0.0, -187500.02235174447, -187500.02235174447, 0.0, 0.368, -0.976, -0.156, 192.0, 0.0, 0.0, 0.0, 0.0, 0.0, 0.0, 0.0, 0.0, 0.0, 1.677704281211425E9, 0.0, 2023-03-01 12:58:01.211
239.0, 15575.120219602612, 19053.766912670962, 0.0, 0.0, 0.0, -187500.02235174447, -187500.02235174447, 0.0, 0.368, -0.976, -0.156, 192.0, 0.0, 0.0, 0.0, 0.0, 0.0, 0.0, 0.0, 0.0, 0.0, 1.67770428121147E9, 0.0, 2023-03-01 12:58:01.211
240.0, 15571.767457934317, 19053.543395226407, 0.0, 0.0, 0.0, -187500.02235174447, -187500.02235174447, 0.0, 0.368, -0.976, -0.156, 192.0, 0.0, 0.0, 0.0, 0.0, 0.0, 0.0, 0.0, 0.0, 0.0, 1.677704281218025E9, 0.0, 2023-03-01 12:58:01.218
241.0, 15572.37095503461, 19053.498691737495, 0.0, 0.0, 0.0, -187500.02235174447, -187500.02235174447, 0.0, 0.368, -0.976, -0.156, 192.0, 11.0, 128.0, 225.0, 128.0, 251.0, 32.0, 0.0, 0.0, 0.0, 1.677704281218038E9, 0.0, 2023-03-01 12:58:01.218
242.0, 15588.732431975894, 19055.48799699402, 0.0, 0.0, 0.0, -187500.02235174447, -187500.02235174447, 0.0, 0.368, -0.976, -0.156, 192.0, 0.0, 0.0, 0.0, 0.0, 0.0, 0.0, 0.0, 0.0, 0.0, 1.677704281226052E9, 0.0, 2023-03-01 12:58:01.226
243.0, 15576.170751592012, 19032.376293227233, 0.0, 0.0, 0.0, -187500.02235174447, -187500.02235174447, 0.0, 0.368, -0.976, -0.156, 192.0, 0.0, 0.0, 0.0, 0.0, 0.0, 0.0, 0.0, 0.0, 0.0, 1.677704281226068E9, 0.0, 2023-03-01 12:58:01.226
244.0, 15564.771361919806, 19038.970057841547, 0.0, 0.0, 0.0, -187500.02235174447, -187500.02235174447, 0.0, 0.368, -0.976, -0.156, 192.0, 0.0, 0.0, 0.0, 0.0, 0.0, 0.0, 0.0, 0.0, 0.0, 1.677704281234019E9, 0.0, 2023-03-01 12:58:01.234
245.0, 15571.946271889958, 19047.195499801102, 0.0, 0.0, 0.0, -187500.02235174447, -187500.02235174447, 0.0, 0.368, -0.976, -0.156, 192.0, 0.0, 0.0, 0.0, 0.0, 0.0, 0.0, 0.0, 0.0, 0.0, 1.677704281234027E9, 0.0, 2023-03-01 12:58:01.234
246.0, 15561.75387641834, 19041.316991009357, 0.0, 0.0, 0.0, -187500.02235174447, -187500.02235174447, 0.0, 0.368, -0.976, -0.156, 192.0, 0.0, 0.0, 0.0, 0.0, 0.0, 0.0, 0.0, 0.0, 0.0, 1.677704281241098E9, 0.0, 2023-03-01 12:58:01.241
247.0, 15576.684841714483, 19053.208119059578, 0.0, 0.0, 0.0, -187500.02235174447, -187500.02235174447, 0.0, 0.368, -0.976, -0.156, 192.0, 0.0, 0.0, 0.0, 0.0, 0.0, 0.0, 0.0, 0.0, 0.0, 1.677704281241117E9, 0.0, 2023-03-01 12:58:01.241
248.0, 15576.03664112528, 19049.453025991086, 0.0, 0.0, 0.0, -187500.02235174447, -187500.02235174447, 0.0, 0.368, -0.976, -0.156, 192.0, 0.0, 0.0, 0.0, 0.0, 0.0, 0.0, 0.0, 0.0, 0.0, 1.677704281247643E9, 0.0, 2023-03-01 12:58:01.247
249.0, 15578.003594637346, 19046.212023045067, 0.0, 0.0, 0.0, -187500.02235174447, -187500.02235174447, 0.0, 0.368, -0.976, -0.156, 192.0, 0.0, 0.0, 0.0, 0.0, 0.0, 0.0, 0.0, 0.0, 0.0, 1.677704281255687E9, 0.0, 2023-03-01 12:58:01.255
250.0, 15572.639175968074, 19047.687238179118, 0.0, 0.0, 0.0, -187500.02235174447, -187500.02235174447, 0.0, 0.368, -0.976, -0.156, 192.0, 0.0, 0.0, 0.0, 0.0, 0.0, 0.0, 0.0, 0.0, 0.0, 1.677704281255708E9, 0.0, 2023-03-01 12:58:01.255
251.0, 15565.911300887026, 19038.970057841547, 0.0, 0.0, 0.0, -187500.02235174447, -187500.02235174447, 0.0, 0.372, -0.972, -0.16, 192.0, 11.0, 160.0, 225.0, 160.0, 251.0, 0.0, 0.0, 0.0, 0.0, 1.677704281263729E9, 0.0, 2023-03-01 12:58:01.263
252.0, 15578.562388248729, 19046.122616067245, 0.0, 0.0, 0.0, -187500.02235174447, -187500.02235174447, 0.0, 0.372, -0.972, -0.16, 192.0, 0.0, 0.0, 0.0, 0.0, 0.0, 0.0, 0.0, 0.0, 0.0, 1.677704281263741E9, 0.0, 2023-03-01 12:58:01.263
253.0, 15580.618748738618, 19055.890328394216, 0.0, 0.0, 0.0, -187500.02235174447, -187500.02235174447, 0.0, 0.372, -0.972, -0.16, 192.0, 0.0, 0.0, 0.0, 0.0, 0.0, 0.0, 0.0, 0.0, 0.0, 1.677704281270854E9, 0.0, 2023-03-01 12:58:01.270
254.0, 15578.316519059721, 19061.590023230317, 0.0, 0.0, 0.0, -187500.02235174447, -187500.02235174447, 0.0, 0.372, -0.972, -0.16, 192.0, 0.0, 0.0, 0.0, 0.0, 0.0, 0.0, 0.0, 0.0, 0.0, 1.677704281270872E9, 0.0, 2023-03-01 12:58:01.270
255.0, 15572.549768990251, 19059.53366274043, 0.0, 0.0, 0.0, -187500.02235174447, -187500.02235174447, 0.0, 0.372, -0.972, -0.16, 192.0, 0.0, 0.0, 0.0, 0.0, 0.0, 0.0, 0.0, 0.0, 0.0, 1.67770428127824E9, 0.0, 2023-03-01 12:58:01.278
0.0, 15574.717888202416, 19056.33736328332, 0.0, 0.0, 0.0, -187500.02235174447, -187500.02235174447, 0.0, 0.372, -0.972, -0.16, 192.0, 0.0, 0.0, 0.0, 0.0, 0.0, 0.0, 0.0, 0.0, 0.0, 1.677704281278248E9, 0.0, 2023-03-01 12:58:01.278
1.0, 15575.164923091523, 19046.122616067245, 0.0, 0.0, 0.0, -187500.02235174447, -187500.02235174447, 0.0, 0.372, -0.972, -0.16, 192.0, 0.0, 0.0, 0.0, 0.0, 0.0, 0.0, 0.0, 0.0, 0.0, 1.677704281286316E9, 0.0, 2023-03-01 12:58:01.286
2.0, 15575.008460880335, 19044.557993955375, 0.0, 0.0, 0.0, -187500.02235174447, -187500.02235174447, 0.0, 0.372, -0.972, -0.16, 192.0, 0.0, 0.0, 0.0, 0.0, 0.0, 0.0, 0.0, 0.0, 0.0, 1.677704281286332E9, 0.0, 2023-03-01 12:58:01.286
3.0, 15569.375821277597, 19044.423883488642, 0.0, 0.0, 0.0, -187500.02235174447, -187500.02235174447, 0.0, 0.372, -0.972, -0.16, 192.0, 0.0, 0.0, 0.0, 0.0, 0.0, 0.0, 0.0, 0.0, 0.0, 1.67770428129431E9, 0.0, 2023-03-01 12:58:01.294
4.0, 15574.047335868758, 19043.1945375436, 0.0, 0.0, 0.0, -187500.02235174447, -187500.02235174447, 0.0, 0.372, -0.972, -0.16, 192.0, 0.0, 0.0, 0.0, 0.0, 0.0, 0.0, 0.0, 0.0, 0.0, 1.677704281294338E9, 0.0, 2023-03-01 12:58:01.294
5.0, 15582.205722594945, 19051.263517291965, 0.0, 0.0, 0.0, -187500.02235174447, -187500.02235174447, 0.0, 0.368, -0.976, -0.16, 192.0, 11.0, 128.0, 225.0, 128.0, 251.0, 0.0, 0.0, 0.0, 0.0, 1.677704281300916E9, 0.0, 2023-03-01 12:58:01.300
6.0, 15584.664414485029, 19057.253784805987, 0.0, 0.0, 0.0, -187500.02235174447, -187500.02235174447, 0.0, 0.368, -0.976, -0.16, 192.0, 0.0, 0.0, 0.0, 0.0, 0.0, 0.0, 0.0, 0.0, 0.0, 1.677704281300936E9, 0.0, 2023-03-01 12:58:01.300
7.0, 15574.60612948014, 19048.514252723962, 0.0, 0.0, 0.0, -187500.02235174447, -187500.02235174447, 0.0, 0.368, -0.976, -0.16, 192.0, 0.0, 0.0, 0.0, 0.0, 0.0, 0.0, 0.0, 0.0, 0.0, 1.677704281307988E9, 0.0, 2023-03-01 12:58:01.307
8.0, 15575.634309725085, 19047.553127712385, 0.0, 0.0, 0.0, -187500.02235174447, -187500.02235174447, 0.0, 0.368, -0.976, -0.16, 192.0, 0.0, 0.0, 0.0, 0.0, 0.0, 0.0, 0.0, 0.0, 0.0, 1.677704281307997E9, 0.0, 2023-03-01 12:58:01.307
9.0, 15572.862693412626, 19047.91075562367, 0.0, 0.0, 0.0, -187500.02235174447, -187500.02235174447, 0.0, 0.368, -0.976, -0.16, 192.0, 0.0, 0.0, 0.0, 0.0, 0.0, 0.0, 0.0, 0.0, 0.0, 1.677704281315987E9, 0.0, 2023-03-01 12:58:01.315
10.0, 15561.977393862891, 19039.886479364217, 0.0, 0.0, 0.0, -187500.02235174447, -187500.02235174447, 0.0, 0.368, -0.976, -0.16, 192.0, 0.0, 0.0, 0.0, 0.0, 0.0, 0.0, 0.0, 0.0, 0.0, 1.677704281323967E9, 0.0, 2023-03-01 12:58:01.323
11.0, 15557.954079860936, 19035.170261284144, 0.0, 0.0, 0.0, -187500.02235174447, -187500.02235174447, 0.0, 0.368, -0.976, -0.16, 192.0, 0.0, 0.0, 0.0, 0.0, 0.0, 0.0, 0.0, 0.0, 0.0, 1.677704281323977E9, 0.0, 2023-03-01 12:58:01.323
12.0, 15558.199949049944, 19041.831081131826, 0.0, 0.0, 0.0, -187500.02235174447, -187500.02235174447, 0.0, 0.368, -0.976, -0.16, 192.0, 0.0, 0.0, 0.0, 0.0, 0.0, 0.0, 0.0, 0.0, 0.0, 1.677704281330552E9, 0.0, 2023-03-01 12:58:01.330
13.0, 15566.067763098214, 19052.224642303543, 0.0, 0.0, 0.0, -187500.02235174447, -187500.02235174447, 0.0, 0.368, -0.976, -0.16, 192.0, 0.0, 0.0, 0.0, 0.0, 0.0, 0.0, 0.0, 0.0, 0.0, 1.67770428133057E9, 0.0, 2023-03-01 12:58:01.330
14.0, 15570.627518967096, 19051.24116554751, 0.0, 0.0, 0.0, -187500.02235174447, -187500.02235174447, 0.0, 0.368, -0.976, -0.16, 192.0, 0.0, 0.0, 0.0, 0.0, 0.0, 0.0, 0.0, 0.0, 0.0, 1.677704281338502E9, 0.0, 2023-03-01 12:58:01.338
15.0, 15571.543940489762, 19049.229508546534, 0.0, 0.0, 0.0, -187500.02235174447, -187500.02235174447, 0.0, 0.366, -0.976, -0.16, 192.0, 11.0, 112.0, 225.0, 128.0, 251.0, 0.0, 0.0, 0.0, 0.0, 1.677704281338529E9, 0.0, 2023-03-01 12:58:01.338
16.0, 15568.41469626602, 19050.280040535934, 0.0, 0.0, 0.0, -187500.02235174447, -187500.02235174447, 0.0, 0.366, -0.976, -0.16, 192.0, 0.0, 0.0, 0.0, 0.0, 0.0, 0.0, 0.0, 0.0, 0.0, 1.677704281346448E9, 0.0, 2023-03-01 12:58:01.346
17.0, 15567.162998576523, 19047.709589923572, 0.0, 0.0, 0.0, -187500.02235174447, -187500.02235174447, 0.0, 0.366, -0.976, -0.16, 192.0, 0.0, 0.0, 0.0, 0.0, 0.0, 0.0, 0.0, 0.0, 0.0, 1.677704281346466E9, 0.0, 2023-03-01 12:58:01.346
18.0, 15561.12802757359, 19046.05556083388, 0.0, 0.0, 0.0, -187500.02235174447, -187500.02235174447, 0.0, 0.366, -0.976, -0.16, 192.0, 0.0, 0.0, 0.0, 0.0, 0.0, 0.0, 0.0, 0.0, 0.0, 1.677704281353909E9, 0.0, 2023-03-01 12:58:01.353
19.0, 15563.564367719218, 19047.10609282328, 0.0, 0.0, 0.0, -187500.02235174447, -187500.02235174447, 0.0, 0.366, -0.976, -0.16, 192.0, 0.0, 0.0, 0.0, 0.0, 0.0, 0.0, 0.0, 0.0, 0.0, 1.677704281353921E9, 0.0, 2023-03-01 12:58:01.353
20.0, 15567.006536365336, 19050.39179925821, 0.0, 0.0, 0.0, -187500.02235174447, -187500.02235174447, 0.0, 0.366, -0.976, -0.16, 192.0, 0.0, 0.0, 0.0, 0.0, 0.0, 0.0, 0.0, 0.0, 0.0, 1.677704281361898E9, 0.0, 2023-03-01 12:58:01.361
21.0, 15569.50993174433, 19047.86605213476, 0.0, 0.0, 0.0, -187500.02235174447, -187500.02235174447, 0.0, 0.366, -0.976, -0.16, 192.0, 0.0, 0.0, 0.0, 0.0, 0.0, 0.0, 0.0, 0.0, 0.0, 1.677704281361916E9, 0.0, 2023-03-01 12:58:01.361
22.0, 15569.50993174433, 19047.575479456842, 0.0, 0.0, 0.0, -187500.02235174447, -187500.02235174447, 0.0, 0.366, -0.976, -0.16, 192.0, 0.0, 0.0, 0.0, 0.0, 0.0, 0.0, 0.0, 0.0, 0.0, 1.677704281368462E9, 0.0, 2023-03-01 12:58:01.368
23.0, 15572.795638179261, 19054.884499893727, 0.0, 0.0, 0.0, -187500.02235174447, -187500.02235174447, 0.0, 0.366, -0.976, -0.16, 192.0, 0.0, 0.0, 0.0, 0.0, 0.0, 0.0, 0.0, 0.0, 0.0, 1.677704281368471E9, 0.0, 2023-03-01 12:58:01.368
24.0, 15575.567254491718, 19051.464682992064, 0.0, 0.0, 0.0, -187500.02235174447, -187500.02235174447, 0.0, 0.366, -0.976, -0.16, 192.0, 0.0, 0.0, 0.0, 0.0, 0.0, 0.0, 0.0, 0.0, 0.0, 1.67770428137559E9, 0.0, 2023-03-01 12:58:01.375
25.0, 15573.287376557277, 19043.328648010334, 0.0, 0.0, 0.0, -187500.02235174447, -187500.02235174447, 0.0, 0.36, -0.978, -0.16, 192.0, 11.0, 64.0, 225.0, 112.0, 251.0, 0.0, 0.0, 0.0, 0.0, 1.677704281383588E9, 0.0, 2023-03-01 12:58:01.383
26.0, 15569.12995208859, 19049.877709135737, 0.0, 0.0, 0.0, -187500.02235174447, -187500.02235174447, 0.0, 0.36, -0.978, -0.16, 192.0, 0.0, 0.0, 0.0, 0.0, 0.0, 0.0, 0.0, 0.0, 0.0, 1.677704281383605E9, 0.0, 2023-03-01 12:58:01.383
27.0, 15571.633347467585, 19056.96321212807, 0.0, 0.0, 0.0, -187500.02235174447, -187500.02235174447, 0.0, 0.36, -0.978, -0.16, 192.0, 0.0, 0.0, 0.0, 0.0, 0.0, 0.0, 0.0, 0.0, 0.0, 1.677704281391535E9, 0.0, 2023-03-01 12:58:01.391
28.0, 15573.55559749074, 19065.903909910194, 0.0, 0.0, 0.0, -187500.02235174447, -187500.02235174447, 0.0, 0.36, -0.978, -0.16, 192.0, 0.0, 0.0, 0.0, 0.0, 0.0, 0.0, 0.0, 0.0, 0.0, 1.677704281391551E9, 0.0, 2023-03-01 12:58:01.391
29.0, 15569.353469533144, 19058.77370342895, 0.0, 0.0, 0.0, -187500.02235174447, -187500.02235174447, 0.0, 0.36, -0.978, -0.16, 192.0, 0.0, 0.0, 0.0, 0.0, 0.0, 0.0, 0.0, 0.0, 0.0, 1.677704281398122E9, 0.0, 2023-03-01 12:58:01.398
30.0, 15575.790771936272, 19046.86022363427, 0.0, 0.0, 0.0, -187500.02235174447, -187500.02235174447, 0.0, 0.36, -0.978, -0.16, 192.0, 0.0, 0.0, 0.0, 0.0, 0.0, 0.0, 0.0, 0.0, 0.0, 1.677704281398133E9, 0.0, 2023-03-01 12:58:01.398
31.0, 15575.053164369247, 19046.502595722985, 0.0, 0.0, 0.0, -187500.02235174447, -187500.02235174447, 0.0, 0.36, -0.978, -0.16, 192.0, 0.0, 0.0, 0.0, 0.0, 0.0, 0.0, 0.0, 0.0, 0.0, 1.677704281406119E9, 0.0, 2023-03-01 12:58:01.406
32.0, 15577.08717311468, 19051.419979503153, 0.0, 0.0, 0.0, -187500.02235174447, -187500.02235174447, 0.0, 0.36, -0.978, -0.16, 192.0, 0.0, 0.0, 0.0, 0.0, 0.0, 0.0, 0.0, 0.0, 0.0, 1.677704281406154E9, 0.0, 2023-03-01 12:58:01.406
33.0, 15581.289301072276, 19062.886424408727, 0.0, 0.0, 0.0, -187500.02235174447, -187500.02235174447, 0.0, 0.36, -0.978, -0.16, 192.0, 0.0, 0.0, 0.0, 0.0, 0.0, 0.0, 0.0, 0.0, 0.0, 1.677704281414097E9, 0.0, 2023-03-01 12:58:01.414
34.0, 15571.633347467585, 19052.694028937105, 0.0, 0.0, 0.0, -187500.02235174447, -187500.02235174447, 0.0, 0.36, -0.978, -0.16, 192.0, 0.0, 0.0, 0.0, 0.0, 0.0, 0.0, 0.0, 0.0, 0.0, 1.677704281414105E9, 0.0, 2023-03-01 12:58:01.414
35.0, 15564.950175875447, 19044.267421277455, 0.0, 0.0, 0.0, -187500.02235174447, -187500.02235174447, 0.0, 0.36, -0.978, -0.16, 192.0, 0.0, 0.0, 0.0, 0.0, 0.0, 0.0, 0.0, 0.0, 0.0, 1.67770428142115E9, 0.0, 2023-03-01 12:58:01.421
36.0, 15557.708210671928, 19035.505537450976, 0.0, 0.0, 0.0, -187500.02235174447, -187500.02235174447, 0.0, 0.366, -0.972, -0.156, 192.0, 11.0, 112.0, 225.0, 160.0, 251.0, 32.0, 0.0, 0.0, 0.0, 1.677704281421169E9, 0.0, 2023-03-01 12:58:01.421
37.0, 15557.305879271733, 19037.405435729677, 0.0, 0.0, 0.0, -187500.02235174447, -187500.02235174447, 0.0, 0.366, -0.972, -0.156, 192.0, 0.0, 0.0, 0.0, 0.0, 0.0, 0.0, 0.0, 0.0, 0.0, 1.677704281428711E9, 0.0, 2023-03-01 12:58:01.428
38.0, 15560.815103151215, 19039.90883110867, 0.0, 0.0, 0.0, -187500.02235174447, -187500.02235174447, 0.0, 0.366, -0.972, -0.156, 192.0, 0.0, 0.0, 0.0, 0.0, 0.0, 0.0, 0.0, 0.0, 0.0, 1.67770428142873E9, 0.0, 2023-03-01 12:58:01.428
39.0, 15562.960870618925, 19037.42778747413, 0.0, 0.0, 0.0, -187500.02235174447, -187500.02235174447, 0.0, 0.366, -0.972, -0.156, 192.0, 0.0, 0.0, 0.0, 0.0, 0.0, 0.0, 0.0, 0.0, 0.0, 1.677704281435859E9, 0.0, 2023-03-01 12:58:01.435
40.0, 15564.458437497431, 19040.08764506431, 0.0, 0.0, 0.0, -187500.02235174447, -187500.02235174447, 0.0, 0.366, -0.972, -0.156, 192.0, 0.0, 0.0, 0.0, 0.0, 0.0, 0.0, 0.0, 0.0, 0.0, 1.677704281443731E9, 0.0, 2023-03-01 12:58:01.443
41.0, 15573.265024812821, 19050.81648240286, 0.0, 0.0, 0.0, -187500.02235174447, -187500.02235174447, 0.0, 0.366, -0.972, -0.156, 192.0, 0.0, 0.0, 0.0, 0.0, 0.0, 0.0, 0.0, 0.0, 0.0, 1.677704281443741E9, 0.0, 2023-03-01 12:58:01.443
42.0, 15567.162998576523, 19052.62697370374, 0.0, 0.0, 0.0, -187500.02235174447, -187500.02235174447, 0.0, 0.366, -0.972, -0.156, 192.0, 0.0, 0.0, 0.0, 0.0, 0.0, 0.0, 0.0, 0.0, 0.0, 1.677704281450415E9, 0.0, 2023-03-01 12:58:01.450
43.0, 15569.956966633436, 19054.549223726895, 0.0, 0.0, 0.0, -187500.02235174447, -187500.02235174447, 0.0, 0.366, -0.972, -0.156, 192.0, 0.0, 0.0, 0.0, 0.0, 0.0, 0.0, 0.0, 0.0, 0.0, 1.67770428145043E9, 0.0, 2023-03-01 12:58:01.450
44.0, 15573.600300979651, 19043.99920034399, 0.0, 0.0, 0.0, -187500.02235174447, -187500.02235174447, 0.0, 0.366, -0.972, -0.156, 192.0, 0.0, 0.0, 0.0, 0.0, 0.0, 0.0, 0.0, 0.0, 0.0, 1.677704281458399E9, 0.0, 2023-03-01 12:58:01.458
45.0, 15567.0735915987, 19036.19844152909, 0.0, 0.0, 0.0, -187500.02235174447, -187500.02235174447, 0.0, 0.366, -0.972, -0.156, 192.0, 0.0, 0.0, 0.0, 0.0, 0.0, 0.0, 0.0, 0.0, 0.0, 1.677704281458408E9, 0.0, 2023-03-01 12:58:01.458
46.0, 15560.636289195572, 19035.1926130286, 0.0, 0.0, 0.0, -187500.02235174447, -187500.02235174447, 0.0, 0.37, -0.972, -0.16, 192.0, 11.0, 144.0, 225.0, 160.0, 251.0, 0.0, 0.0, 0.0, 0.0, 1.677704281466406E9, 0.0, 2023-03-01 12:58:01.466
47.0, 15558.98226010588, 19031.124595537734, 0.0, 0.0, 0.0, -187500.02235174447, -187500.02235174447, 0.0, 0.37, -0.972, -0.16, 192.0, 0.0, 0.0, 0.0, 0.0, 0.0, 0.0, 0.0, 0.0, 0.0, 1.677704281466434E9, 0.0, 2023-03-01 12:58:01.466
48.0, 15554.377800748087, 19025.223735001535, 0.0, 0.0, 0.0, -187500.02235174447, -187500.02235174447, 0.0, 0.37, -0.972, -0.16, 192.0, 0.0, 0.0, 0.0, 0.0, 0.0, 0.0, 0.0, 0.0, 0.0, 1.677704281474421E9, 0.0, 2023-03-01 12:58:01.474
49.0, 15562.670297941006, 19032.599810671785, 0.0, 0.0, 0.0, -187500.02235174447, -187500.02235174447, 0.0, 0.37, -0.972, -0.16, 192.0, 0.0, 0.0, 0.0, 0.0, 0.0, 0.0, 0.0, 0.0, 0.0, 1.677704281474439E9, 0.0, 2023-03-01 12:58:01.474
50.0, 15564.3243270307, 19033.76210138346, 0.0, 0.0, 0.0, -187500.02235174447, -187500.02235174447, 0.0, 0.37, -0.972, -0.16, 192.0, 0.0, 0.0, 0.0, 0.0, 0.0, 0.0, 0.0, 0.0, 0.0, 1.677704281481061E9, 0.0, 2023-03-01 12:58:01.481
51.0, 15567.162998576523, 19038.00893282997, 0.0, 0.0, 0.0, -187500.02235174447, -187500.02235174447, 0.0, 0.37, -0.972, -0.16, 192.0, 0.0, 0.0, 0.0, 0.0, 0.0, 0.0, 0.0, 0.0, 0.0, 1.677704281481076E9, 0.0, 2023-03-01 12:58:01.481
52.0, 15567.095943343156, 19040.177052042134, 0.0, 0.0, 0.0, -187500.02235174447, -187500.02235174447, 0.0, 0.37, -0.972, -0.16, 192.0, 0.0, 0.0, 0.0, 0.0, 0.0, 0.0, 0.0, 0.0, 0.0, 1.677704281489135E9, 0.0, 2023-03-01 12:58:01.489
53.0, 15564.41373400852, 19037.785415385417, 0.0, 0.0, 0.0, -187500.02235174447, -187500.02235174447, 0.0, 0.37, -0.972, -0.16, 192.0, 0.0, 0.0, 0.0, 0.0, 0.0, 0.0, 0.0, 0.0, 0.0, 1.677704281489151E9, 0.0, 2023-03-01 12:58:01.489
54.0, 15569.644042211063, 19042.188709043112, 0.0, 0.0, 0.0, -187500.02235174447, -187500.02235174447, 0.0, 0.37, -0.972, -0.16, 192.0, 0.0, 0.0, 0.0, 0.0, 0.0, 0.0, 0.0, 0.0, 0.0, 1.677704281496145E9, 0.0, 2023-03-01 12:58:01.496
55.0, 15562.826760152193, 19033.58328742782, 0.0, 0.0, 0.0, -187500.02235174447, -187500.02235174447, 0.0, 0.37, -0.972, -0.16, 192.0, 0.0, 0.0, 0.0, 0.0, 0.0, 0.0, 0.0, 0.0, 0.0, 1.677704281503322E9, 0.0, 2023-03-01 12:58:01.503
56.0, 15560.50217872884, 19030.118767037246, 0.0, 0.0, 0.0, -187500.02235174447, -187500.02235174447, 0.0, 0.372, -0.972, -0.152, 192.0, 11.0, 160.0, 225.0, 160.0, 251.0, 64.0, 0.0, 0.0, 0.0, 1.677704281503331E9, 0.0, 2023-03-01 12:58:01.503
57.0, 15557.55174846074, 19031.325761237833, 0.0, 0.0, 0.0, -187500.02235174447, -187500.02235174447, 0.0, 0.372, -0.972, -0.152, 192.0, 0.0, 0.0, 0.0, 0.0, 0.0, 0.0, 0.0, 0.0, 0.0, 1.677704281510678E9, 0.0, 2023-03-01 12:58:01.510
58.0, 15565.665431698017, 19032.420996716144, 0.0, 0.0, 0.0, -187500.02235174447, -187500.02235174447, 0.0, 0.372, -0.972, -0.152, 192.0, 0.0, 0.0, 0.0, 0.0, 0.0, 0.0, 0.0, 0.0, 0.0, 1.677704281510698E9, 0.0, 2023-03-01 12:58:01.510
59.0, 15559.585757206174, 19028.57649666983, 0.0, 0.0, 0.0, -187500.02235174447, -187500.02235174447, 0.0, 0.372, -0.972, -0.152, 192.0, 0.0, 0.0, 0.0, 0.0, 0.0, 0.0, 0.0, 0.0, 0.0, 1.677704281518702E9, 0.0, 2023-03-01 12:58:01.518
60.0, 15561.284489784777, 19025.313141979354, 0.0, 0.0, 0.0, -187500.02235174447, -187500.02235174447, 0.0, 0.372, -0.972, -0.152, 192.0, 0.0, 0.0, 0.0, 0.0, 0.0, 0.0, 0.0, 0.0, 0.0, 1.677704281518717E9, 0.0, 2023-03-01 12:58:01.518
61.0, 15558.110542072123, 19019.680502376617, 0.0, 0.0, 0.0, -187500.02235174447, -187500.02235174447, 0.0, 0.372, -0.972, -0.152, 192.0, 0.0, 0.0, 0.0, 0.0, 0.0, 0.0, 0.0, 0.0, 0.0, 1.677704281526761E9, 0.0, 2023-03-01 12:58:01.526
62.0, 15556.74708566035, 19021.289827977398, 0.0, 0.0, 0.0, -187500.02235174447, -187500.02235174447, 0.0, 0.372, -0.972, -0.152, 192.0, 0.0, 0.0, 0.0, 0.0, 0.0, 0.0, 0.0, 0.0, 0.0, 1.677704281526777E9, 0.0, 2023-03-01 12:58:01.526
63.0, 15560.345716517653, 19029.068235047846, 0.0, 0.0, 0.0, -187500.02235174447, -187500.02235174447, 0.0, 0.372, -0.972, -0.152, 192.0, 0.0, 0.0, 0.0, 0.0, 0.0, 0.0, 0.0, 0.0, 0.0, 1.677704281533458E9, 0.0, 2023-03-01 12:58:01.533
64.0, 15554.757780403826, 19032.0410170604, 0.0, 0.0, 0.0, -187500.02235174447, -187500.02235174447, 0.0, 0.372, -0.972, -0.152, 192.0, 0.0, 0.0, 0.0, 0.0, 0.0, 0.0, 0.0, 0.0, 0.0, 1.677704281533471E9, 0.0, 2023-03-01 12:58:01.533
65.0, 15556.121236815601, 19026.43072920212, 0.0, 0.0, 0.0, -187500.02235174447, -187500.02235174447, 0.0, 0.372, -0.972, -0.152, 192.0, 0.0, 0.0, 0.0, 0.0, 0.0, 0.0, 0.0, 0.0, 0.0, 1.677704281541403E9, 0.0, 2023-03-01 12:58:01.541
66.0, 15555.60714669313, 19020.57457215483, 0.0, 0.0, 0.0, -187500.02235174447, -187500.02235174447, 0.0, 0.362, -0.978, -0.152, 192.0, 11.0, 80.0, 225.0, 112.0, 251.0, 64.0, 0.0, 0.0, 0.0, 1.677704281541418E9, 0.0, 2023-03-01 12:58:01.541
67.0, 15562.133856074079, 19027.257743746966, 0.0, 0.0, 0.0, -187500.02235174447, -187500.02235174447, 0.0, 0.362, -0.978, -0.152, 192.0, 0.0, 0.0, 0.0, 0.0, 0.0, 0.0, 0.0, 0.0, 0.0, 1.677704281549329E9, 0.0, 2023-03-01 12:58:01.549
68.0, 15568.280585799288, 19033.315066494353, 0.0, 0.0, 0.0, -187500.02235174447, -187500.02235174447, 0.0, 0.362, -0.978, -0.152, 192.0, 0.0, 0.0, 0.0, 0.0, 0.0, 0.0, 0.0, 0.0, 0.0, 1.677704281549339E9, 0.0, 2023-03-01 12:58:01.549
69.0, 15563.743181674861, 19034.544412439398, 0.0, 0.0, 0.0, -187500.02235174447, -187500.02235174447, 0.0, 0.362, -0.978, -0.152, 192.0, 0.0, 0.0, 0.0, 0.0, 0.0, 0.0, 0.0, 0.0, 0.0, 1.677704281556692E9, 0.0, 2023-03-01 12:58:01.556
70.0, 15574.69553645796, 19049.609488202273, 0.0, 0.0, 0.0, -187500.02235174447, -187500.02235174447, 0.0, 0.362, -0.978, -0.152, 192.0, 0.0, 0.0, 0.0, 0.0, 0.0, 0.0, 0.0, 0.0, 0.0, 1.677704281556712E9, 0.0, 2023-03-01 12:58:01.556
71.0, 15574.203798079945, 19044.088607321813, 0.0, 0.0, 0.0, -187500.02235174447, -187500.02235174447, 0.0, 0.362, -0.978, -0.152, 192.0, 0.0, 0.0, 0.0, 0.0, 0.0, 0.0, 0.0, 0.0, 0.0, 1.677704281563009E9, 0.0, 2023-03-01 12:58:01.563
72.0, 15563.0726293412, 19033.560935683363, 0.0, 0.0, 0.0, -187500.02235174447, -187500.02235174447, 0.0, 0.362, -0.978, -0.152, 192.0, 0.0, 0.0, 0.0, 0.0, 0.0, 0.0, 0.0, 0.0, 0.0, 1.677704281571073E9, 0.0, 2023-03-01 12:58:01.571
73.0, 15563.340850274666, 19032.823328116338, 0.0, 0.0, 0.0, -187500.02235174447, -187500.02235174447, 0.0, 0.362, -0.978, -0.152, 192.0, 0.0, 0.0, 0.0, 0.0, 0.0, 0.0, 0.0, 0.0, 0.0, 1.677704281571088E9, 0.0, 2023-03-01 12:58:01.571
74.0, 15559.138722317068, 19026.989522813503, 0.0, 0.0, 0.0, -187500.02235174447, -187500.02235174447, 0.0, 0.362, -0.978, -0.152, 192.0, 0.0, 0.0, 0.0, 0.0, 0.0, 0.0, 0.0, 0.0, 0.0, 1.677704281579073E9, 0.0, 2023-03-01 12:58:01.579
75.0, 15560.189254306468, 19016.372444197234, 0.0, 0.0, 0.0, -187500.02235174447, -187500.02235174447, 0.0, 0.362, -0.978, -0.152, 192.0, 0.0, 0.0, 0.0, 0.0, 0.0, 0.0, 0.0, 0.0, 0.0, 1.677704281579085E9, 0.0, 2023-03-01 12:58:01.579
76.0, 15557.50704497183, 19025.491955935, 0.0, 0.0, 0.0, -187500.02235174447, -187500.02235174447, 0.0, 0.358, -0.974, -0.154, 192.0, 11.0, 48.0, 225.0, 144.0, 251.0, 48.0, 0.0, 0.0, 0.0, 1.677704281586222E9, 0.0, 2023-03-01 12:58:01.586
77.0, 15558.64698393905, 19025.424900701633, 0.0, 0.0, 0.0, -187500.02235174447, -187500.02235174447, 0.0, 0.358, -0.974, -0.154, 192.0, 0.0, 0.0, 0.0, 0.0, 0.0, 0.0, 0.0, 0.0, 0.0, 1.677704281586232E9, 0.0, 2023-03-01 12:58:01.586
78.0, 15560.50217872884, 19025.313141979354, 0.0, 0.0, 0.0, -187500.02235174447, -187500.02235174447, 0.0, 0.358, -0.974, -0.154, 192.0, 0.0, 0.0, 0.0, 0.0, 0.0, 0.0, 0.0, 0.0, 0.0, 1.677704281593699E9, 0.0, 2023-03-01 12:58:01.593
79.0, 15561.105675829134, 19031.258706004468, 0.0, 0.0, 0.0, -187500.02235174447, -187500.02235174447, 0.0, 0.358, -0.974, -0.154, 192.0, 0.0, 0.0, 0.0, 0.0, 0.0, 0.0, 0.0, 0.0, 0.0, 1.677704281593707E9, 0.0, 2023-03-01 12:58:01.593
80.0, 15562.424428751998, 19025.76017686846, 0.0, 0.0, 0.0, -187500.02235174447, -187500.02235174447, 0.0, 0.358, -0.974, -0.154, 192.0, 0.0, 0.0, 0.0, 0.0, 0.0, 0.0, 0.0, 0.0, 0.0, 1.677704281601601E9, 0.0, 2023-03-01 12:58:01.601
81.0, 15565.397210764553, 19024.776700112427, 0.0, 0.0, 0.0, -187500.02235174447, -187500.02235174447, 0.0, 0.358, -0.974, -0.154, 192.0, 0.0, 0.0, 0.0, 0.0, 0.0, 0.0, 0.0, 0.0, 0.0, 1.677704281601648E9, 0.0, 2023-03-01 12:58:01.601
82.0, 15561.642117696061, 19023.279133233922, 0.0, 0.0, 0.0, -187500.02235174447, -187500.02235174447, 0.0, 0.358, -0.974, -0.154, 192.0, 0.0, 0.0, 0.0, 0.0, 0.0, 0.0, 0.0, 0.0, 0.0, 1.677704281608893E9, 0.0, 2023-03-01 12:58:01.608
83.0, 15562.200911307445, 19023.122671022735, 0.0, 0.0, 0.0, -187500.02235174447, -187500.02235174447, 0.0, 0.358, -0.974, -0.154, 192.0, 0.0, 0.0, 0.0, 0.0, 0.0, 0.0, 0.0, 0.0, 0.0, 1.677704281608909E9, 0.0, 2023-03-01 12:58:01.608
84.0, 15563.229091552388, 19026.631894902217, 0.0, 0.0, 0.0, -187500.02235174447, -187500.02235174447, 0.0, 0.358, -0.974, -0.154, 192.0, 0.0, 0.0, 0.0, 0.0, 0.0, 0.0, 0.0, 0.0, 0.0, 1.677704281616351E9, 0.0, 2023-03-01 12:58:01.616
85.0, 15561.485655484876, 19027.838889102804, 0.0, 0.0, 0.0, -187500.02235174447, -187500.02235174447, 0.0, 0.358, -0.974, -0.154, 192.0, 0.0, 0.0, 0.0, 0.0, 0.0, 0.0, 0.0, 0.0, 0.0, 1.67770428161637E9, 0.0, 2023-03-01 12:58:01.616
86.0, 15563.69847818595, 19028.53179318092, 0.0, 0.0, 0.0, -187500.02235174447, -187500.02235174447, 0.0, 0.358, -0.972, -0.15, 192.0, 11.0, 48.0, 225.0, 160.0, 251.0, 80.0, 0.0, 0.0, 0.0, 1.677704281623374E9, 0.0, 2023-03-01 12:58:01.623
87.0, 15562.849111896649, 19028.688255392106, 0.0, 0.0, 0.0, -187500.02235174447, -187500.02235174447, 0.0, 0.358, -0.972, -0.15, 192.0, 0.0, 0.0, 0.0, 0.0, 0.0, 0.0, 0.0, 0.0, 0.0, 1.677704281631329E9, 0.0, 2023-03-01 12:58:01.631
88.0, 15563.899643886049, 19032.935086838614, 0.0, 0.0, 0.0, -187500.02235174447, -187500.02235174447, 0.0, 0.358, -0.972, -0.15, 192.0, 0.0, 0.0, 0.0, 0.0, 0.0, 0.0, 0.0, 0.0, 0.0, 1.677704281631339E9, 0.0, 2023-03-01 12:58:01.631
89.0, 15571.454533511942, 19031.90690659367, 0.0, 0.0, 0.0, -187500.02235174447, -187500.02235174447, 0.0, 0.358, -0.972, -0.15, 192.0, 0.0, 0.0, 0.0, 0.0, 0.0, 0.0, 0.0, 0.0, 0.0, 1.677704281638416E9, 0.0, 2023-03-01 12:58:01.638
90.0, 15568.682917199483, 19030.990485071005, 0.0, 0.0, 0.0, -187500.02235174447, -187500.02235174447, 0.0, 0.358, -0.972, -0.15, 192.0, 0.0, 0.0, 0.0, 0.0, 0.0, 0.0, 0.0, 0.0, 0.0, 1.677704281638425E9, 0.0, 2023-03-01 12:58:01.638
91.0, 15564.50314098634, 19034.29854325039, 0.0, 0.0, 0.0, -187500.02235174447, -187500.02235174447, 0.0, 0.358, -0.972, -0.15, 192.0, 0.0, 0.0, 0.0, 0.0, 0.0, 0.0, 0.0, 0.0, 0.0, 1.677704281645974E9, 0.0, 2023-03-01 12:58:01.645
92.0, 15565.285452042277, 19033.359769983264, 0.0, 0.0, 0.0, -187500.02235174447, -187500.02235174447, 0.0, 0.358, -0.972, -0.15, 192.0, 0.0, 0.0, 0.0, 0.0, 0.0, 0.0, 0.0, 0.0, 0.0, 1.677704281645991E9, 0.0, 2023-03-01 12:58:01.645
93.0, 15559.69751592845, 19031.146947282192, 0.0, 0.0, 0.0, -187500.02235174447, -187500.02235174447, 0.0, 0.358, -0.972, -0.15, 192.0, 0.0, 0.0, 0.0, 0.0, 0.0, 0.0, 0.0, 0.0, 0.0, 1.677704281653985E9, 0.0, 2023-03-01 12:58:01.653
94.0, 15558.758742661328, 19033.382121727722, 0.0, 0.0, 0.0, -187500.02235174447, -187500.02235174447, 0.0, 0.358, -0.972, -0.15, 192.0, 0.0, 0.0, 0.0, 0.0, 0.0, 0.0, 0.0, 0.0, 0.0, 1.677704281654E9, 0.0, 2023-03-01 12:58:01.654
95.0, 15566.2242253094, 19032.778624627426, 0.0, 0.0, 0.0, -187500.02235174447, -187500.02235174447, 0.0, 0.358, -0.972, -0.15, 192.0, 0.0, 0.0, 0.0, 0.0, 0.0, 0.0, 0.0, 0.0, 0.0, 1.677704281662059E9, 0.0, 2023-03-01 12:58:01.662
96.0, 15560.457475239931, 19021.870973333236, 0.0, 0.0, 0.0, -187500.02235174447, -187500.02235174447, 0.0, 0.356, -0.976, -0.152, 192.0, 11.0, 32.0, 225.0, 128.0, 251.0, 64.0, 0.0, 0.0, 0.0, 1.677704281662074E9, 0.0, 2023-03-01 12:58:01.662
97.0, 15557.104713571634, 19016.99829304198, 0.0, 0.0, 0.0, -187500.02235174447, -187500.02235174447, 0.0, 0.356, -0.976, -0.152, 192.0, 0.0, 0.0, 0.0, 0.0, 0.0, 0.0, 0.0, 0.0, 0.0, 1.677704281668612E9, 0.0, 2023-03-01 12:58:01.668
98.0, 15562.98322236338, 19028.308275736366, 0.0, 0.0, 0.0, -187500.02235174447, -187500.02235174447, 0.0, 0.356, -0.976, -0.152, 192.0, 0.0, 0.0, 0.0, 0.0, 0.0, 0.0, 0.0, 0.0, 0.0, 1.677704281668623E9, 0.0, 2023-03-01 12:58:01.668
99.0, 15562.290318285266, 19029.895249592693, 0.0, 0.0, 0.0, -187500.02235174447, -187500.02235174447, 0.0, 0.356, -0.976, -0.152, 192.0, 0.0, 0.0, 0.0, 0.0, 0.0, 0.0, 0.0, 0.0, 0.0, 1.677704281676566E9, 0.0, 2023-03-01 12:58:01.676
100.0, 15558.60228045014, 19028.442386203096, 0.0, 0.0, 0.0, -187500.02235174447, -187500.02235174447, 0.0, 0.356, -0.976, -0.152, 192.0, 0.0, 0.0, 0.0, 0.0, 0.0, 0.0, 0.0, 0.0, 0.0, 1.677704281676577E9, 0.0, 2023-03-01 12:58:01.676
101.0, 15557.283527527277, 19026.251915246477, 0.0, 0.0, 0.0, -187500.02235174447, -187500.02235174447, 0.0, 0.356, -0.976, -0.152, 192.0, 0.0, 0.0, 0.0, 0.0, 0.0, 0.0, 0.0, 0.0, 0.0, 1.677704281683641E9, 0.0, 2023-03-01 12:58:01.683
102.0, 15557.439989738465, 19023.413243700656, 0.0, 0.0, 0.0, -187500.02235174447, -187500.02235174447, 0.0, 0.356, -0.976, -0.152, 192.0, 0.0, 0.0, 0.0, 0.0, 0.0, 0.0, 0.0, 0.0, 0.0, 1.677704281691648E9, 0.0, 2023-03-01 12:58:01.691
103.0, 15558.669335683506, 19020.351054710278, 0.0, 0.0, 0.0, -187500.02235174447, -187500.02235174447, 0.0, 0.356, -0.976, -0.152, 192.0, 0.0, 0.0, 0.0, 0.0, 0.0, 0.0, 0.0, 0.0, 0.0, 1.677704281691665E9, 0.0, 2023-03-01 12:58:01.691
104.0, 15558.915204872514, 19019.836964587805, 0.0, 0.0, 0.0, -187500.02235174447, -187500.02235174447, 0.0, 0.356, -0.976, -0.152, 192.0, 0.0, 0.0, 0.0, 0.0, 0.0, 0.0, 0.0, 0.0, 0.0, 1.677704281698299E9, 0.0, 2023-03-01 12:58:01.698
105.0, 15555.808312393227, 19022.362711711256, 0.0, 0.0, 0.0, -187500.02235174447, -187500.02235174447, 0.0, 0.356, -0.976, -0.152, 192.0, 0.0, 0.0, 0.0, 0.0, 0.0, 0.0, 0.0, 0.0, 0.0, 1.677704281698318E9, 0.0, 2023-03-01 12:58:01.698
106.0, 15562.022097351803, 19028.688255392106, 0.0, 0.0, 0.0, -187500.02235174447, -187500.02235174447, 0.0, 0.36, -0.974, -0.152, 192.0, 11.0, 64.0, 225.0, 144.0, 251.0, 64.0, 0.0, 0.0, 0.0, 1.677704281706263E9, 0.0, 2023-03-01 12:58:01.706
107.0, 15565.84424565366, 19024.4414239456, 0.0, 0.0, 0.0, -187500.02235174447, -187500.02235174447, 0.0, 0.36, -0.974, -0.152, 192.0, 0.0, 0.0, 0.0, 0.0, 0.0, 0.0, 0.0, 0.0, 0.0, 1.677704281706279E9, 0.0, 2023-03-01 12:58:01.706
108.0, 15570.202835822445, 19025.11197627926, 0.0, 0.0, 0.0, -187500.02235174447, -187500.02235174447, 0.0, 0.36, -0.974, -0.152, 192.0, 0.0, 0.0, 0.0, 0.0, 0.0, 0.0, 0.0, 0.0, 0.0, 1.677704281714284E9, 0.0, 2023-03-01 12:58:01.714
109.0, 15565.956004375936, 19026.274266990935, 0.0, 0.0, 0.0, -187500.02235174447, -187500.02235174447, 0.0, 0.36, -0.974, -0.152, 192.0, 0.0, 0.0, 0.0, 0.0, 0.0, 0.0, 0.0, 0.0, 0.0, 1.677704281714299E9, 0.0, 2023-03-01 12:58:01.714
110.0, 15562.513835729818, 19027.10128153578, 0.0, 0.0, 0.0, -187500.02235174447, -187500.02235174447, 0.0, 0.36, -0.974, -0.152, 192.0, 0.0, 0.0, 0.0, 0.0, 0.0, 0.0, 0.0, 0.0, 0.0, 1.677704281721264E9, 0.0, 2023-03-01 12:58:01.721
111.0, 15560.971565362403, 19022.80974660036, 0.0, 0.0, 0.0, -187500.02235174447, -187500.02235174447, 0.0, 0.36, -0.974, -0.152, 192.0, 0.0, 0.0, 0.0, 0.0, 0.0, 0.0, 0.0, 0.0, 0.0, 1.677704281721275E9, 0.0, 2023-03-01 12:58:01.721
112.0, 15565.665431698017, 19025.447252446087, 0.0, 0.0, 0.0, -187500.02235174447, -187500.02235174447, 0.0, 0.36, -0.974, -0.152, 192.0, 0.0, 0.0, 0.0, 0.0, 0.0, 0.0, 0.0, 0.0, 0.0, 1.67770428172924E9, 0.0, 2023-03-01 12:58:01.729
113.0, 15564.07845784169, 19032.130424038223, 0.0, 0.0, 0.0, -187500.02235174447, -187500.02235174447, 0.0, 0.36, -0.974, -0.152, 192.0, 0.0, 0.0, 0.0, 0.0, 0.0, 0.0, 0.0, 0.0, 0.0, 1.677704281729295E9, 0.0, 2023-03-01 12:58:01.729
114.0, 15564.681954941983, 19033.024493816436, 0.0, 0.0, 0.0, -187500.02235174447, -187500.02235174447, 0.0, 0.36, -0.974, -0.152, 192.0, 0.0, 0.0, 0.0, 0.0, 0.0, 0.0, 0.0, 0.0, 0.0, 1.677704281736763E9, 0.0, 2023-03-01 12:58:01.736
115.0, 15573.823818424204, 19027.302447235877, 0.0, 0.0, 0.0, -187500.02235174447, -187500.02235174447, 0.0, 0.36, -0.974, -0.152, 192.0, 0.0, 0.0, 0.0, 0.0, 0.0, 0.0, 0.0, 0.0, 0.0, 1.677704281736778E9, 0.0, 2023-03-01 12:58:01.736
116.0, 15577.288338814777, 19029.67173214814, 0.0, 0.0, 0.0, -187500.02235174447, -187500.02235174447, 0.0, 0.36, -0.974, -0.152, 192.0, 0.0, 0.0, 0.0, 0.0, 0.0, 0.0, 0.0, 0.0, 0.0, 1.677704281743846E9, 0.0, 2023-03-01 12:58:01.743
117.0, 15575.880178914093, 19036.511365951465, 0.0, 0.0, 0.0, -187500.02235174447, -187500.02235174447, 0.0, 0.362, -0.98, -0.156, 192.0, 11.0, 80.0, 225.0, 96.0, 251.0, 32.0, 0.0, 0.0, 0.0, 1.677704281750941E9, 0.0, 2023-03-01 12:58:01.750
118.0, 15573.823818424204, 19036.109034551268, 0.0, 0.0, 0.0, -187500.02235174447, -187500.02235174447, 0.0, 0.362, -0.98, -0.156, 192.0, 0.0, 0.0, 0.0, 0.0, 0.0, 0.0, 0.0, 0.0, 0.0, 1.677704281750956E9, 0.0, 2023-03-01 12:58:01.750
119.0, 15571.990975378869, 19026.67659839113, 0.0, 0.0, 0.0, -187500.02235174447, -187500.02235174447, 0.0, 0.362, -0.98, -0.156, 192.0, 0.0, 0.0, 0.0, 0.0, 0.0, 0.0, 0.0, 0.0, 0.0, 1.677704281758362E9, 0.0, 2023-03-01 12:58:01.758
120.0, 15572.75093469035, 19029.850546103782, 0.0, 0.0, 0.0, -187500.02235174447, -187500.02235174447, 0.0, 0.362, -0.98, -0.156, 192.0, 0.0, 0.0, 0.0, 0.0, 0.0, 0.0, 0.0, 0.0, 0.0, 1.677704281758374E9, 0.0, 2023-03-01 12:58:01.758
121.0, 15573.265024812821, 19040.15470029768, 0.0, 0.0, 0.0, -187500.02235174447, -187500.02235174447, 0.0, 0.362, -0.98, -0.156, 192.0, 0.0, 0.0, 0.0, 0.0, 0.0, 0.0, 0.0, 0.0, 0.0, 1.677704281766427E9, 0.0, 2023-03-01 12:58:01.766
122.0, 15572.572120734707, 19047.28490677892, 0.0, 0.0, 0.0, -187500.02235174447, -187500.02235174447, 0.0, 0.362, -0.98, -0.156, 192.0, 0.0, 0.0, 0.0, 0.0, 0.0, 0.0, 0.0, 0.0, 0.0, 1.677704281766436E9, 0.0, 2023-03-01 12:58:01.766
123.0, 15574.94140564697, 19039.90883110867, 0.0, 0.0, 0.0, -187500.02235174447, -187500.02235174447, 0.0, 0.362, -0.98, -0.156, 192.0, 0.0, 0.0, 0.0, 0.0, 0.0, 0.0, 0.0, 0.0, 0.0, 1.677704281774342E9, 0.0, 2023-03-01 12:58:01.774
124.0, 15570.851036411648, 19027.57066816934, 0.0, 0.0, 0.0, -187500.02235174447, -187500.02235174447, 0.0, 0.362, -0.98, -0.156, 192.0, 0.0, 0.0, 0.0, 0.0, 0.0, 0.0, 0.0, 0.0, 0.0, 1.677704281774361E9, 0.0, 2023-03-01 12:58:01.774
125.0, 15573.823818424204, 19030.85637460427, 0.0, 0.0, 0.0, -187500.02235174447, -187500.02235174447, 0.0, 0.362, -0.98, -0.156, 192.0, 0.0, 0.0, 0.0, 0.0, 0.0, 0.0, 0.0, 0.0, 0.0, 1.677704281781012E9, 0.0, 2023-03-01 12:58:01.781
126.0, 15566.045411353758, 19029.850546103782, 0.0, 0.0, 0.0, -187500.02235174447, -187500.02235174447, 0.0, 0.362, -0.98, -0.156, 192.0, 0.0, 0.0, 0.0, 0.0, 0.0, 0.0, 0.0, 0.0, 0.0, 1.677704281781028E9, 0.0, 2023-03-01 12:58:01.781
127.0, 15565.374859020098, 19029.023531558934, 0.0, 0.0, 0.0, -187500.02235174447, -187500.02235174447, 0.0, 0.36, -0.978, -0.152, 192.0, 11.0, 64.0, 225.0, 112.0, 251.0, 64.0, 0.0, 0.0, 0.0, 1.677704281789067E9, 0.0, 2023-03-01 12:58:01.789
128.0, 15571.856864912137, 19030.409339715166, 0.0, 0.0, 0.0, -187500.02235174447, -187500.02235174447, 0.0, 0.36, -0.978, -0.152, 192.0, 0.0, 0.0, 0.0, 0.0, 0.0, 0.0, 0.0, 0.0, 0.0, 1.677704281789088E9, 0.0, 2023-03-01 12:58:01.789
129.0, 15570.716925944917, 19033.11390079426, 0.0, 0.0, 0.0, -187500.02235174447, -187500.02235174447, 0.0, 0.36, -0.978, -0.152, 192.0, 0.0, 0.0, 0.0, 0.0, 0.0, 0.0, 0.0, 0.0, 0.0, 1.677704281797004E9, 0.0, 2023-03-01 12:58:01.797
130.0, 15564.458437497431, 19036.33255199582, 0.0, 0.0, 0.0, -187500.02235174447, -187500.02235174447, 0.0, 0.36, -0.978, -0.152, 192.0, 0.0, 0.0, 0.0, 0.0, 0.0, 0.0, 0.0, 0.0, 0.0, 1.67770428179704E9, 0.0, 2023-03-01 12:58:01.797
131.0, 15560.233957795377, 19033.04684556089, 0.0, 0.0, 0.0, -187500.02235174447, -187500.02235174447, 0.0, 0.36, -0.978, -0.152, 192.0, 0.0, 0.0, 0.0, 0.0, 0.0, 0.0, 0.0, 0.0, 0.0, 1.677704281803228E9, 0.0, 2023-03-01 12:58:01.803
132.0, 15561.686821184972, 19034.76792988395, 0.0, 0.0, 0.0, -187500.02235174447, -187500.02235174447, 0.0, 0.36, -0.978, -0.152, 192.0, 0.0, 0.0, 0.0, 0.0, 0.0, 0.0, 0.0, 0.0, 0.0, 1.677704281803245E9, 0.0, 2023-03-01 12:58:01.803
133.0, 15563.0726293412, 19033.560935683363, 0.0, 0.0, 0.0, -187500.02235174447, -187500.02235174447, 0.0, 0.36, -0.978, -0.152, 192.0, 0.0, 0.0, 0.0, 0.0, 0.0, 0.0, 0.0, 0.0, 0.0, 1.677704281811183E9, 0.0, 2023-03-01 12:58:01.811
134.0, 15571.32042304521, 19038.075988063334, 0.0, 0.0, 0.0, -187500.02235174447, -187500.02235174447, 0.0, 0.36, -0.978, -0.152, 192.0, 0.0, 0.0, 0.0, 0.0, 0.0, 0.0, 0.0, 0.0, 0.0, 1.677704281818747E9, 0.0, 2023-03-01 12:58:01.818
135.0, 15574.673184713505, 19036.95840084057, 0.0, 0.0, 0.0, -187500.02235174447, -187500.02235174447, 0.0, 0.36, -0.978, -0.152, 192.0, 0.0, 0.0, 0.0, 0.0, 0.0, 0.0, 0.0, 0.0, 0.0, 1.677704281818766E9, 0.0, 2023-03-01 12:58:01.818
136.0, 15573.242673068366, 19036.489014207007, 0.0, 0.0, 0.0, -187500.02235174447, -187500.02235174447, 0.0, 0.36, -0.978, -0.152, 192.0, 0.0, 0.0, 0.0, 0.0, 0.0, 0.0, 0.0, 0.0, 0.0, 1.677704281828278E9, 0.0, 2023-03-01 12:58:01.828
137.0, 15575.075516113702, 19041.54050845391, 0.0, 0.0, 0.0, -187500.02235174447, -187500.02235174447, 0.0, 0.362, -0.976, -0.154, 192.0, 11.0, 80.0, 225.0, 128.0, 251.0, 48.0, 0.0, 0.0, 0.0, 1.677704281828294E9, 0.0, 2023-03-01 12:58:01.828
138.0, 15568.861731155126, 19042.09930206529, 0.0, 0.0, 0.0, -187500.02235174447, -187500.02235174447, 0.0, 0.362, -0.976, -0.154, 192.0, 0.0, 0.0, 0.0, 0.0, 0.0, 0.0, 0.0, 0.0, 0.0, 1.677704281834421E9, 0.0, 2023-03-01 12:58:01.834
139.0, 15566.939481131969, 19038.500671207985, 0.0, 0.0, 0.0, -187500.02235174447, -187500.02235174447, 0.0, 0.362, -0.976, -0.154, 192.0, 0.0, 0.0, 0.0, 0.0, 0.0, 0.0, 0.0, 0.0, 0.0, 1.677704281834436E9, 0.0, 2023-03-01 12:58:01.834
140.0, 15568.168827077012, 19036.15373804018, 0.0, 0.0, 0.0, -187500.02235174447, -187500.02235174447, 0.0, 0.362, -0.976, -0.154, 192.0, 0.0, 0.0, 0.0, 0.0, 0.0, 0.0, 0.0, 0.0, 0.0, 1.677704281841415E9, 0.0, 2023-03-01 12:58:01.841
141.0, 15570.426353266997, 19041.495804964998, 0.0, 0.0, 0.0, -187500.02235174447, -187500.02235174447, 0.0, 0.362, -0.976, -0.154, 192.0, 0.0, 0.0, 0.0, 0.0, 0.0, 0.0, 0.0, 0.0, 0.0, 1.677704281841425E9, 0.0, 2023-03-01 12:58:01.841
142.0, 15568.906434644037, 19034.253839761477, 0.0, 0.0, 0.0, -187500.02235174447, -187500.02235174447, 0.0, 0.362, -0.976, -0.154, 192.0, 0.0, 0.0, 0.0, 0.0, 0.0, 0.0, 0.0, 0.0, 0.0, 1.677704281849402E9, 0.0, 2023-03-01 12:58:01.849
143.0, 15566.939481131969, 19027.011874557957, 0.0, 0.0, 0.0, -187500.02235174447, -187500.02235174447, 0.0, 0.362, -0.976, -0.154, 192.0, 0.0, 0.0, 0.0, 0.0, 0.0, 0.0, 0.0, 0.0, 0.0, 1.677704281849416E9, 0.0, 2023-03-01 12:58:01.849
144.0, 15563.653774697039, 19021.870973333236, 0.0, 0.0, 0.0, -187500.02235174447, -187500.02235174447, 0.0, 0.362, -0.976, -0.154, 192.0, 0.0, 0.0, 0.0, 0.0, 0.0, 0.0, 0.0, 0.0, 0.0, 1.677704281856543E9, 0.0, 2023-03-01 12:58:01.856
145.0, 15563.720829930406, 19033.359769983264, 0.0, 0.0, 0.0, -187500.02235174447, -187500.02235174447, 0.0, 0.362, -0.976, -0.154, 192.0, 0.0, 0.0, 0.0, 0.0, 0.0, 0.0, 0.0, 0.0, 0.0, 1.677704281856553E9, 0.0, 2023-03-01 12:58:01.856
146.0, 15568.504103243842, 19035.99727582899, 0.0, 0.0, 0.0, -187500.02235174447, -187500.02235174447, 0.0, 0.362, -0.976, -0.154, 192.0, 0.0, 0.0, 0.0, 0.0, 0.0, 0.0, 0.0, 0.0, 0.0, 1.677704281863918E9, 0.0, 2023-03-01 12:58:01.863
147.0, 15568.951138132947, 19032.264534504957, 0.0, 0.0, 0.0, -187500.02235174447, -187500.02235174447, 0.0, 0.36, -0.978, -0.148, 192.0, 11.0, 64.0, 225.0, 112.0, 251.0, 96.0, 0.0, 0.0, 0.0, 1.677704281863939E9, 0.0, 2023-03-01 12:58:01.863
148.0, 15569.308766044232, 19030.968133326547, 0.0, 0.0, 0.0, -187500.02235174447, -187500.02235174447, 0.0, 0.36, -0.978, -0.148, 192.0, 0.0, 0.0, 0.0, 0.0, 0.0, 0.0, 0.0, 0.0, 0.0, 1.677704281870986E9, 0.0, 2023-03-01 12:58:01.870
149.0, 15566.447742753953, 19034.90204035068, 0.0, 0.0, 0.0, -187500.02235174447, -187500.02235174447, 0.0, 0.36, -0.978, -0.148, 192.0, 0.0, 0.0, 0.0, 0.0, 0.0, 0.0, 0.0, 0.0, 0.0, 1.677704281878974E9, 0.0, 2023-03-01 12:58:01.878
150.0, 15568.705268943939, 19039.797072386395, 0.0, 0.0, 0.0, -187500.02235174447, -187500.02235174447, 0.0, 0.36, -0.978, -0.148, 192.0, 0.0, 0.0, 0.0, 0.0, 0.0, 0.0, 0.0, 0.0, 0.0, 1.677704281878992E9, 0.0, 2023-03-01 12:58:01.878
151.0, 15562.98322236338, 19030.00700831497, 0.0, 0.0, 0.0, -187500.02235174447, -187500.02235174447, 0.0, 0.36, -0.978, -0.148, 192.0, 0.0, 0.0, 0.0, 0.0, 0.0, 0.0, 0.0, 0.0, 0.0, 1.677704281886227E9, 0.0, 2023-03-01 12:58:01.886
152.0, 15564.592547964163, 19027.749482124982, 0.0, 0.0, 0.0, -187500.02235174447, -187500.02235174447, 0.0, 0.36, -0.978, -0.148, 192.0, 0.0, 0.0, 0.0, 0.0, 0.0, 0.0, 0.0, 0.0, 0.0, 1.677704281886237E9, 0.0, 2023-03-01 12:58:01.886
153.0, 15567.095943343156, 19033.784453127915, 0.0, 0.0, 0.0, -187500.02235174447, -187500.02235174447, 0.0, 0.36, -0.978, -0.148, 192.0, 0.0, 0.0, 0.0, 0.0, 0.0, 0.0, 0.0, 0.0, 0.0, 1.677704281893591E9, 0.0, 2023-03-01 12:58:01.893
154.0, 15564.391382264064, 19031.258706004468, 0.0, 0.0, 0.0, -187500.02235174447, -187500.02235174447, 0.0, 0.36, -0.978, -0.148, 192.0, 0.0, 0.0, 0.0, 0.0, 0.0, 0.0, 0.0, 0.0, 0.0, 1.677704281893602E9, 0.0, 2023-03-01 12:58:01.893
155.0, 15559.742219417361, 19030.118767037246, 0.0, 0.0, 0.0, -187500.02235174447, -187500.02235174447, 0.0, 0.36, -0.978, -0.148, 192.0, 0.0, 0.0, 0.0, 0.0, 0.0, 0.0, 0.0, 0.0, 0.0, 1.677704281901559E9, 0.0, 2023-03-01 12:58:01.901
156.0, 15562.446780496453, 19031.929258338125, 0.0, 0.0, 0.0, -187500.02235174447, -187500.02235174447, 0.0, 0.36, -0.978, -0.148, 192.0, 0.0, 0.0, 0.0, 0.0, 0.0, 0.0, 0.0, 0.0, 0.0, 1.67770428190157E9, 0.0, 2023-03-01 12:58:01.901
157.0, 15564.83841715317, 19029.403511214678, 0.0, 0.0, 0.0, -187500.02235174447, -187500.02235174447, 0.0, 0.364, -0.98, -0.152, 192.0, 11.0, 96.0, 225.0, 96.0, 251.0, 64.0, 0.0, 0.0, 0.0, 1.677704281909673E9, 0.0, 2023-03-01 12:58:01.909
158.0, 15567.2747572988, 19035.170261284144, 0.0, 0.0, 0.0, -187500.02235174447, -187500.02235174447, 0.0, 0.364, -0.98, -0.152, 192.0, 0.0, 0.0, 0.0, 0.0, 0.0, 0.0, 0.0, 0.0, 0.0, 1.677704281909692E9, 0.0, 2023-03-01 12:58:01.909
159.0, 15565.061934597725, 19038.344208996798, 0.0, 0.0, 0.0, -187500.02235174447, -187500.02235174447, 0.0, 0.364, -0.98, -0.152, 192.0, 0.0, 0.0, 0.0, 0.0, 0.0, 0.0, 0.0, 0.0, 0.0, 1.677704281916294E9, 0.0, 2023-03-01 12:58:01.916
160.0, 15565.911300887026, 19038.947706097093, 0.0, 0.0, 0.0, -187500.02235174447, -187500.02235174447, 0.0, 0.364, -0.98, -0.152, 192.0, 0.0, 0.0, 0.0, 0.0, 0.0, 0.0, 0.0, 0.0, 0.0, 1.67770428191631E9, 0.0, 2023-03-01 12:58:01.916
161.0, 15574.404963780042, 19044.423883488642, 0.0, 0.0, 0.0, -187500.02235174447, -187500.02235174447, 0.0, 0.364, -0.98, -0.152, 192.0, 0.0, 0.0, 0.0, 0.0, 0.0, 0.0, 0.0, 0.0, 0.0, 1.677704281924304E9, 0.0, 2023-03-01 12:58:01.924
162.0, 15570.314594544721, 19042.032246831925, 0.0, 0.0, 0.0, -187500.02235174447, -187500.02235174447, 0.0, 0.364, -0.98, -0.152, 192.0, 0.0, 0.0, 0.0, 0.0, 0.0, 0.0, 0.0, 0.0, 0.0, 1.677704281924343E9, 0.0, 2023-03-01 12:58:01.924
163.0, 15570.783981178283, 19045.228546289032, 0.0, 0.0, 0.0, -187500.02235174447, -187500.02235174447, 0.0, 0.364, -0.98, -0.152, 192.0, 0.0, 0.0, 0.0, 0.0, 0.0, 0.0, 0.0, 0.0, 0.0, 1.677704281931186E9, 0.0, 2023-03-01 12:58:01.931
164.0, 15573.622652724107, 19052.269345792454, 0.0, 0.0, 0.0, -187500.02235174447, -187500.02235174447, 0.0, 0.364, -0.98, -0.152, 192.0, 0.0, 0.0, 0.0, 0.0, 0.0, 0.0, 0.0, 0.0, 0.0, 1.677704281939147E9, 0.0, 2023-03-01 12:58:01.939
165.0, 15568.705268943939, 19045.42971198913, 0.0, 0.0, 0.0, -187500.02235174447, -187500.02235174447, 0.0, 0.364, -0.98, -0.152, 192.0, 0.0, 0.0, 0.0, 0.0, 0.0, 0.0, 0.0, 0.0, 0.0, 1.677704281939163E9, 0.0, 2023-03-01 12:58:01.939
166.0, 15567.967661376913, 19046.72611316754, 0.0, 0.0, 0.0, -187500.02235174447, -187500.02235174447, 0.0, 0.364, -0.98, -0.152, 192.0, 0.0, 0.0, 0.0, 0.0, 0.0, 0.0, 0.0, 0.0, 0.0, 1.677704281945688E9, 0.0, 2023-03-01 12:58:01.945
167.0, 15576.774248692305, 19049.900060880194, 0.0, 0.0, 0.0, -187500.02235174447, -187500.02235174447, 0.0, 0.356, -0.976, -0.15, 192.0, 11.0, 32.0, 225.0, 128.0, 251.0, 80.0, 0.0, 0.0, 0.0, 1.677704281945699E9, 0.0, 2023-03-01 12:58:01.945
168.0, 15574.203798079945, 19042.43457823212, 0.0, 0.0, 0.0, -187500.02235174447, -187500.02235174447, 0.0, 0.356, -0.976, -0.15, 192.0, 0.0, 0.0, 0.0, 0.0, 0.0, 0.0, 0.0, 0.0, 0.0, 1.677704281953876E9, 0.0, 2023-03-01 12:58:01.953
169.0, 15578.070649870713, 19050.257688791477, 0.0, 0.0, 0.0, -187500.02235174447, -187500.02235174447, 0.0, 0.356, -0.976, -0.15, 192.0, 0.0, 0.0, 0.0, 0.0, 0.0, 0.0, 0.0, 0.0, 0.0, 1.677704281953889E9, 0.0, 2023-03-01 12:58:01.953
170.0, 15577.377745792599, 19045.42971198913, 0.0, 0.0, 0.0, -187500.02235174447, -187500.02235174447, 0.0, 0.356, -0.976, -0.15, 192.0, 0.0, 0.0, 0.0, 0.0, 0.0, 0.0, 0.0, 0.0, 0.0, 1.677704281961842E9, 0.0, 2023-03-01 12:58:01.961
171.0, 15574.159094591034, 19047.687238179118, 0.0, 0.0, 0.0, -187500.02235174447, -187500.02235174447, 0.0, 0.356, -0.976, -0.15, 192.0, 0.0, 0.0, 0.0, 0.0, 0.0, 0.0, 0.0, 0.0, 0.0, 1.677704281961859E9, 0.0, 2023-03-01 12:58:01.961
172.0, 15568.906434644037, 19043.261592776966, 0.0, 0.0, 0.0, -187500.02235174447, -187500.02235174447, 0.0, 0.356, -0.976, -0.15, 192.0, 0.0, 0.0, 0.0, 0.0, 0.0, 0.0, 0.0, 0.0, 0.0, 1.677704281968484E9, 0.0, 2023-03-01 12:58:01.968
173.0, 15563.162036319023, 19035.550240939887, 0.0, 0.0, 0.0, -187500.02235174447, -187500.02235174447, 0.0, 0.356, -0.976, -0.15, 192.0, 0.0, 0.0, 0.0, 0.0, 0.0, 0.0, 0.0, 0.0, 0.0, 1.677704281968503E9, 0.0, 2023-03-01 12:58:01.968
174.0, 15560.524530473296, 19035.460833962064, 0.0, 0.0, 0.0, -187500.02235174447, -187500.02235174447, 0.0, 0.356, -0.976, -0.15, 192.0, 0.0, 0.0, 0.0, 0.0, 0.0, 0.0, 0.0, 0.0, 0.0, 1.677704281976522E9, 0.0, 2023-03-01 12:58:01.976
175.0, 15571.231016067388, 19040.62408693124, 0.0, 0.0, 0.0, -187500.02235174447, -187500.02235174447, 0.0, 0.356, -0.976, -0.15, 192.0, 0.0, 0.0, 0.0, 0.0, 0.0, 0.0, 0.0, 0.0, 0.0, 1.677704281976544E9, 0.0, 2023-03-01 12:58:01.976
176.0, 15577.355394048143, 19043.753331154985, 0.0, 0.0, 0.0, -187500.02235174447, -187500.02235174447, 0.0, 0.356, -0.976, -0.15, 192.0, 0.0, 0.0, 0.0, 0.0, 0.0, 0.0, 0.0, 0.0, 0.0, 1.677704281984485E9, 0.0, 2023-03-01 12:58:01.984
177.0, 15573.533245746285, 19034.00797057247, 0.0, 0.0, 0.0, -187500.02235174447, -187500.02235174447, 0.0, 0.36, -0.978, -0.148, 192.0, 11.0, 64.0, 225.0, 112.0, 251.0, 96.0, 0.0, 0.0, 0.0, 1.677704281984498E9, 0.0, 2023-03-01 12:58:01.984
178.0, 15568.817027666215, 19033.829156616826, 0.0, 0.0, 0.0, -187500.02235174447, -187500.02235174447, 0.0, 0.36, -0.978, -0.148, 192.0, 0.0, 0.0, 0.0, 0.0, 0.0, 0.0, 0.0, 0.0, 0.0, 1.677704281991563E9, 0.0, 2023-03-01 12:58:01.991
179.0, 15572.616824223618, 19044.312124766366, 0.0, 0.0, 0.0, -187500.02235174447, -187500.02235174447, 0.0, 0.36, -0.978, -0.148, 192.0, 0.0, 0.0, 0.0, 0.0, 0.0, 0.0, 0.0, 0.0, 0.0, 1.677704281998098E9, 0.0, 2023-03-01 12:58:01.998
180.0, 15576.953062647948, 19043.552165454887, 0.0, 0.0, 0.0, -187500.02235174447, -187500.02235174447, 0.0, 0.36, -0.978, -0.148, 192.0, 0.0, 0.0, 0.0, 0.0, 0.0, 0.0, 0.0, 0.0, 0.0, 1.67770428199811E9, 0.0, 2023-03-01 12:58:01.998
181.0, 15571.052202111747, 19035.058502561867, 0.0, 0.0, 0.0, -187500.02235174447, -187500.02235174447, 0.0, 0.36, -0.978, -0.148, 192.0, 0.0, 0.0, 0.0, 0.0, 0.0, 0.0, 0.0, 0.0, 0.0, 1.677704282006108E9, 0.0, 2023-03-01 12:58:02.006
182.0, 15570.292242800266, 19035.14790953969, 0.0, 0.0, 0.0, -187500.02235174447, -187500.02235174447, 0.0, 0.36, -0.978, -0.148, 192.0, 0.0, 0.0, 0.0, 0.0, 0.0, 0.0, 0.0, 0.0, 0.0, 1.677704282006124E9, 0.0, 2023-03-01 12:58:02.006
183.0, 15567.453571254442, 19035.01379907296, 0.0, 0.0, 0.0, -187500.02235174447, -187500.02235174447, 0.0, 0.36, -0.978, -0.148, 192.0, 0.0, 0.0, 0.0, 0.0, 0.0, 0.0, 0.0, 0.0, 0.0, 1.677704282014273E9, 0.0, 2023-03-01 12:58:02.014
184.0, 15566.715963687417, 19031.459871704563, 0.0, 0.0, 0.0, -187500.02235174447, -187500.02235174447, 0.0, 0.36, -0.978, -0.148, 192.0, 0.0, 0.0, 0.0, 0.0, 0.0, 0.0, 0.0, 0.0, 0.0, 1.677704282014288E9, 0.0, 2023-03-01 12:58:02.014
185.0, 15571.007498622836, 19040.937011353613, 0.0, 0.0, 0.0, -187500.02235174447, -187500.02235174447, 0.0, 0.36, -0.978, -0.148, 192.0, 0.0, 0.0, 0.0, 0.0, 0.0, 0.0, 0.0, 0.0, 0.0, 1.67770428202133E9, 0.0, 2023-03-01 12:58:02.021
186.0, 15569.018193366313, 19035.3937787287, 0.0, 0.0, 0.0, -187500.02235174447, -187500.02235174447, 0.0, 0.36, -0.978, -0.148, 192.0, 0.0, 0.0, 0.0, 0.0, 0.0, 0.0, 0.0, 0.0, 0.0, 1.677704282021346E9, 0.0, 2023-03-01 12:58:02.021
187.0, 15568.235882310377, 19033.560935683363, 0.0, 0.0, 0.0, -187500.02235174447, -187500.02235174447, 0.0, 0.36, -0.974, -0.14400000000000002, 192.0, 11.0, 64.0, 225.0, 144.0, 251.0, 128.0, 0.0, 0.0, 0.0, 1.677704282028669E9, 0.0, 2023-03-01 12:58:02.028
188.0, 15569.12995208859, 19044.647400933194, 0.0, 0.0, 0.0, -187500.02235174447, -187500.02235174447, 0.0, 0.36, -0.974, -0.14400000000000002, 192.0, 0.0, 0.0, 0.0, 0.0, 0.0, 0.0, 0.0, 0.0, 0.0, 1.677704282028683E9, 0.0, 2023-03-01 12:58:02.028
189.0, 15567.565329976718, 19039.86412761976, 0.0, 0.0, 0.0, -187500.02235174447, -187500.02235174447, 0.0, 0.36, -0.974, -0.14400000000000002, 192.0, 0.0, 0.0, 0.0, 0.0, 0.0, 0.0, 0.0, 0.0, 0.0, 1.677704282036815E9, 0.0, 2023-03-01 12:58:02.036
190.0, 15570.113428844623, 19035.14790953969, 0.0, 0.0, 0.0, -187500.02235174447, -187500.02235174447, 0.0, 0.36, -0.974, -0.14400000000000002, 192.0, 0.0, 0.0, 0.0, 0.0, 0.0, 0.0, 0.0, 0.0, 0.0, 1.67770428203683E9, 0.0, 2023-03-01 12:58:02.036
191.0, 15564.480789241887, 19035.3937787287, 0.0, 0.0, 0.0, -187500.02235174447, -187500.02235174447, 0.0, 0.36, -0.974, -0.14400000000000002, 192.0, 0.0, 0.0, 0.0, 0.0, 0.0, 0.0, 0.0, 0.0, 0.0, 1.677704282044728E9, 0.0, 2023-03-01 12:58:02.044
192.0, 15573.913225402026, 19043.976848599537, 0.0, 0.0, 0.0, -187500.02235174447, -187500.02235174447, 0.0, 0.36, -0.974, -0.14400000000000002, 192.0, 0.0, 0.0, 0.0, 0.0, 0.0, 0.0, 0.0, 0.0, 0.0, 1.677704282044736E9, 0.0, 2023-03-01 12:58:02.044
193.0, 15582.339833061676, 19055.197424316102, 0.0, 0.0, 0.0, -187500.02235174447, -187500.02235174447, 0.0, 0.36, -0.974, -0.14400000000000002, 192.0, 0.0, 0.0, 0.0, 0.0, 0.0, 0.0, 0.0, 0.0, 0.0, 1.677704282050834E9, 0.0, 2023-03-01 12:58:02.050
194.0, 15581.51281851683, 19041.629915431728, 0.0, 0.0, 0.0, -187500.02235174447, -187500.02235174447, 0.0, 0.36, -0.974, -0.14400000000000002, 192.0, 0.0, 0.0, 0.0, 0.0, 0.0, 0.0, 0.0, 0.0, 0.0, 1.67770428205085E9, 0.0, 2023-03-01 12:58:02.050
195.0, 15575.23197832489, 19036.936049096115, 0.0, 0.0, 0.0, -187500.02235174447, -187500.02235174447, 0.0, 0.36, -0.974, -0.14400000000000002, 192.0, 0.0, 0.0, 0.0, 0.0, 0.0, 0.0, 0.0, 0.0, 0.0, 1.677704282059929E9, 0.0, 2023-03-01 12:58:02.059
196.0, 15570.538111989274, 19037.830118874328, 0.0, 0.0, 0.0, -187500.02235174447, -187500.02235174447, 0.0, 0.36, -0.974, -0.14400000000000002, 192.0, 0.0, 0.0, 0.0, 0.0, 0.0, 0.0, 0.0, 0.0, 0.0, 1.677704282066516E9, 0.0, 2023-03-01 12:58:02.066
197.0, 15573.175617835, 19044.647400933194, 0.0, 0.0, 0.0, -187500.02235174447, -187500.02235174447, 0.0, 0.36, -0.974, -0.14400000000000002, 192.0, 0.0, 0.0, 0.0, 0.0, 0.0, 0.0, 0.0, 0.0, 0.0, 1.677704282066542E9, 0.0, 2023-03-01 12:58:02.066
198.0, 15569.88991140007, 19040.892307864706, 0.0, 0.0, 0.0, -187500.02235174447, -187500.02235174447, 0.0, 0.352, -0.976, -0.14400000000000002, 192.0, 11.0, 0.0, 225.0, 128.0, 251.0, 128.0, 0.0, 0.0, 0.0, 1.677704282074395E9, 0.0, 2023-03-01 12:58:02.074
199.0, 15564.03375435278, 19040.46762472005, 0.0, 0.0, 0.0, -187500.02235174447, -187500.02235174447, 0.0, 0.352, -0.976, -0.14400000000000002, 192.0, 0.0, 0.0, 0.0, 0.0, 0.0, 0.0, 0.0, 0.0, 0.0, 1.677704282074406E9, 0.0, 2023-03-01 12:58:02.074
200.0, 15569.711097444428, 19044.535642210918, 0.0, 0.0, 0.0, -187500.02235174447, -187500.02235174447, 0.0, 0.352, -0.976, -0.14400000000000002, 192.0, 0.0, 0.0, 0.0, 0.0, 0.0, 0.0, 0.0, 0.0, 0.0, 1.677704282081062E9, 0.0, 2023-03-01 12:58:02.081
201.0, 15568.973489877402, 19040.0429415754, 0.0, 0.0, 0.0, -187500.02235174447, -187500.02235174447, 0.0, 0.352, -0.976, -0.14400000000000002, 192.0, 0.0, 0.0, 0.0, 0.0, 0.0, 0.0, 0.0, 0.0, 0.0, 1.677704282081077E9, 0.0, 2023-03-01 12:58:02.081
202.0, 15569.532283488785, 19043.82038638835, 0.0, 0.0, 0.0, -187500.02235174447, -187500.02235174447, 0.0, 0.352, -0.976, -0.14400000000000002, 192.0, 0.0, 0.0, 0.0, 0.0, 0.0, 0.0, 0.0, 0.0, 0.0, 1.67770428208897E9, 0.0, 2023-03-01 12:58:02.088
203.0, 15565.03958285327, 19043.753331154985, 0.0, 0.0, 0.0, -187500.02235174447, -187500.02235174447, 0.0, 0.352, -0.976, -0.14400000000000002, 192.0, 0.0, 0.0, 0.0, 0.0, 0.0, 0.0, 0.0, 0.0, 0.0, 1.677704282088979E9, 0.0, 2023-03-01 12:58:02.088
204.0, 15566.067763098214, 19042.367522998753, 0.0, 0.0, 0.0, -187500.02235174447, -187500.02235174447, 0.0, 0.352, -0.976, -0.14400000000000002, 192.0, 0.0, 0.0, 0.0, 0.0, 0.0, 0.0, 0.0, 0.0, 0.0, 1.677704282097079E9, 0.0, 2023-03-01 12:58:02.097
205.0, 15575.120219602612, 19047.329610267832, 0.0, 0.0, 0.0, -187500.02235174447, -187500.02235174447, 0.0, 0.352, -0.976, -0.14400000000000002, 192.0, 0.0, 0.0, 0.0, 0.0, 0.0, 0.0, 0.0, 0.0, 0.0, 1.677704282097099E9, 0.0, 2023-03-01 12:58:02.097
206.0, 15578.115353359623, 19047.977810857035, 0.0, 0.0, 0.0, -187500.02235174447, -187500.02235174447, 0.0, 0.352, -0.976, -0.14400000000000002, 192.0, 0.0, 0.0, 0.0, 0.0, 0.0, 0.0, 0.0, 0.0, 0.0, 1.677704282104072E9, 0.0, 2023-03-01 12:58:02.104
207.0, 15570.515760244818, 19041.607563687274, 0.0, 0.0, 0.0, -187500.02235174447, -187500.02235174447, 0.0, 0.352, -0.976, -0.14400000000000002, 192.0, 0.0, 0.0, 0.0, 0.0, 0.0, 0.0, 0.0, 0.0, 0.0, 1.67770428210409E9, 0.0, 2023-03-01 12:58:02.104
208.0, 15570.962795133924, 19040.73584565352, 0.0, 0.0, 0.0, -187500.02235174447, -187500.02235174447, 0.0, 0.36, -0.978, -0.146, 192.0, 11.0, 64.0, 225.0, 112.0, 251.0, 112.0, 0.0, 0.0, 0.0, 1.677704282111591E9, 0.0, 2023-03-01 12:58:02.111
209.0, 15571.253367811843, 19039.86412761976, 0.0, 0.0, 0.0, -187500.02235174447, -187500.02235174447, 0.0, 0.36, -0.978, -0.146, 192.0, 0.0, 0.0, 0.0, 0.0, 0.0, 0.0, 0.0, 0.0, 0.0, 1.677704282111607E9, 0.0, 2023-03-01 12:58:02.111
210.0, 15563.720829930406, 19035.43848221761, 0.0, 0.0, 0.0, -187500.02235174447, -187500.02235174447, 0.0, 0.36, -0.978, -0.146, 192.0, 0.0, 0.0, 0.0, 0.0, 0.0, 0.0, 0.0, 0.0, 0.0, 1.67770428211873E9, 0.0, 2023-03-01 12:58:02.118
211.0, 15561.731524673884, 19046.86022363427, 0.0, 0.0, 0.0, -187500.02235174447, -187500.02235174447, 0.0, 0.36, -0.978, -0.146, 192.0, 0.0, 0.0, 0.0, 0.0, 0.0, 0.0, 0.0, 0.0, 0.0, 1.677704282126718E9, 0.0, 2023-03-01 12:58:02.126
212.0, 15564.704306686439, 19046.703761423083, 0.0, 0.0, 0.0, -187500.02235174447, -187500.02235174447, 0.0, 0.36, -0.978, -0.146, 192.0, 0.0, 0.0, 0.0, 0.0, 0.0, 0.0, 0.0, 0.0, 0.0, 1.67770428212673E9, 0.0, 2023-03-01 12:58:02.126
213.0, 15567.587681721174, 19036.80193862938, 0.0, 0.0, 0.0, -187500.02235174447, -187500.02235174447, 0.0, 0.36, -0.978, -0.146, 192.0, 0.0, 0.0, 0.0, 0.0, 0.0, 0.0, 0.0, 0.0, 0.0, 1.677704282133252E9, 0.0, 2023-03-01 12:58:02.133
214.0, 15566.514797987318, 19043.373351499242, 0.0, 0.0, 0.0, -187500.02235174447, -187500.02235174447, 0.0, 0.36, -0.978, -0.146, 192.0, 0.0, 0.0, 0.0, 0.0, 0.0, 0.0, 0.0, 0.0, 0.0, 1.677704282133261E9, 0.0, 2023-03-01 12:58:02.133
215.0, 15572.639175968074, 19047.73194166803, 0.0, 0.0, 0.0, -187500.02235174447, -187500.02235174447, 0.0, 0.36, -0.978, -0.146, 192.0, 0.0, 0.0, 0.0, 0.0, 0.0, 0.0, 0.0, 0.0, 0.0, 1.677704282141378E9, 0.0, 2023-03-01 12:58:02.141
216.0, 15570.761629433828, 19044.759159655474, 0.0, 0.0, 0.0, -187500.02235174447, -187500.02235174447, 0.0, 0.36, -0.978, -0.146, 192.0, 0.0, 0.0, 0.0, 0.0, 0.0, 0.0, 0.0, 0.0, 0.0, 1.677704282141399E9, 0.0, 2023-03-01 12:58:02.141
217.0, 15568.973489877402, 19046.569650956353, 0.0, 0.0, 0.0, -187500.02235174447, -187500.02235174447, 0.0, 0.36, -0.978, -0.146, 192.0, 0.0, 0.0, 0.0, 0.0, 0.0, 0.0, 0.0, 0.0, 0.0, 1.677704282149339E9, 0.0, 2023-03-01 12:58:02.149
218.0, 15564.145513075056, 19045.027380588937, 0.0, 0.0, 0.0, -187500.02235174447, -187500.02235174447, 0.0, 0.34600000000000003, -0.984, -0.154, 192.0, 10.0, 208.0, 225.0, 64.0, 251.0, 48.0, 0.0, 0.0, 0.0, 1.677704282149356E9, 0.0, 2023-03-01 12:58:02.149
219.0, 15554.489559470363, 19031.370464726744, 0.0, 0.0, 0.0, -187500.02235174447, -187500.02235174447, 0.0, 0.34600000000000003, -0.984, -0.154, 192.0, 0.0, 0.0, 0.0, 0.0, 0.0, 0.0, 0.0, 0.0, 0.0, 1.677704282156348E9, 0.0, 2023-03-01 12:58:02.156
220.0, 15555.808312393227, 19030.297580992887, 0.0, 0.0, 0.0, -187500.02235174447, -187500.02235174447, 0.0, 0.34600000000000003, -0.984, -0.154, 192.0, 0.0, 0.0, 0.0, 0.0, 0.0, 0.0, 0.0, 0.0, 0.0, 1.677704282156364E9, 0.0, 2023-03-01 12:58:02.156
221.0, 15556.143588560057, 19033.024493816436, 0.0, 0.0, 0.0, -187500.02235174447, -187500.02235174447, 0.0, 0.34600000000000003, -0.984, -0.154, 192.0, 0.0, 0.0, 0.0, 0.0, 0.0, 0.0, 0.0, 0.0, 0.0, 1.677704282163995E9, 0.0, 2023-03-01 12:58:02.163
222.0, 15554.735428659373, 19033.47152870554, 0.0, 0.0, 0.0, -187500.02235174447, -187500.02235174447, 0.0, 0.34600000000000003, -0.984, -0.154, 192.0, 0.0, 0.0, 0.0, 0.0, 0.0, 0.0, 0.0, 0.0, 0.0, 1.677704282164007E9, 0.0, 2023-03-01 12:58:02.164
223.0, 15559.742219417361, 19029.112938536757, 0.0, 0.0, 0.0, -187500.02235174447, -187500.02235174447, 0.0, 0.34600000000000003, -0.984, -0.154, 192.0, 0.0, 0.0, 0.0, 0.0, 0.0, 0.0, 0.0, 0.0, 0.0, 1.677704282171987E9, 0.0, 2023-03-01 12:58:02.171
224.0, 15556.657678682528, 19030.18582227061, 0.0, 0.0, 0.0, -187500.02235174447, -187500.02235174447, 0.0, 0.34600000000000003, -0.984, -0.154, 192.0, 0.0, 0.0, 0.0, 0.0, 0.0, 0.0, 0.0, 0.0, 0.0, 1.677704282172E9, 0.0, 2023-03-01 12:58:02.172
225.0, 15555.540091459763, 19033.806804872373, 0.0, 0.0, 0.0, -187500.02235174447, -187500.02235174447, 0.0, 0.34600000000000003, -0.984, -0.154, 192.0, 0.0, 0.0, 0.0, 0.0, 0.0, 0.0, 0.0, 0.0, 0.0, 1.677704282178877E9, 0.0, 2023-03-01 12:58:02.178
226.0, 15558.043486838758, 19038.43361597462, 0.0, 0.0, 0.0, -187500.02235174447, -187500.02235174447, 0.0, 0.34600000000000003, -0.984, -0.154, 192.0, 0.0, 0.0, 0.0, 0.0, 0.0, 0.0, 0.0, 0.0, 0.0, 1.67770428218605E9, 0.0, 2023-03-01 12:58:02.186
227.0, 15560.055143839736, 19038.277153763433, 0.0, 0.0, 0.0, -187500.02235174447, -187500.02235174447, 0.0, 0.34600000000000003, -0.984, -0.154, 192.0, 0.0, 0.0, 0.0, 0.0, 0.0, 0.0, 0.0, 0.0, 0.0, 1.6777042821861E9, 0.0, 2023-03-01 12:58:02.186
228.0, 15548.141664045057, 19028.464737947554, 0.0, 0.0, 0.0, -187500.02235174447, -187500.02235174447, 0.0, 0.356, -0.976, -0.148, 192.0, 11.0, 32.0, 225.0, 128.0, 251.0, 96.0, 0.0, 0.0, 0.0, 1.677704282194135E9, 0.0, 2023-03-01 12:58:02.194
229.0, 15556.009478093325, 19035.729054895528, 0.0, 0.0, 0.0, -187500.02235174447, -187500.02235174447, 0.0, 0.356, -0.976, -0.148, 192.0, 0.0, 0.0, 0.0, 0.0, 0.0, 0.0, 0.0, 0.0, 0.0, 1.677704282194152E9, 0.0, 2023-03-01 12:58:02.194
230.0, 15563.139684574568, 19038.321857252344, 0.0, 0.0, 0.0, -187500.02235174447, -187500.02235174447, 0.0, 0.356, -0.976, -0.148, 192.0, 0.0, 0.0, 0.0, 0.0, 0.0, 0.0, 0.0, 0.0, 0.0, 1.677704282201677E9, 0.0, 2023-03-01 12:58:02.201
231.0, 15561.686821184972, 19037.472490963042, 0.0, 0.0, 0.0, -187500.02235174447, -187500.02235174447, 0.0, 0.356, -0.976, -0.148, 192.0, 0.0, 0.0, 0.0, 0.0, 0.0, 0.0, 0.0, 0.0, 0.0, 1.677704282201692E9, 0.0, 2023-03-01 12:58:02.201
232.0, 15557.283527527277, 19032.15277578268, 0.0, 0.0, 0.0, -187500.02235174447, -187500.02235174447, 0.0, 0.356, -0.976, -0.148, 192.0, 0.0, 0.0, 0.0, 0.0, 0.0, 0.0, 0.0, 0.0, 0.0, 1.677704282209615E9, 0.0, 2023-03-01 12:58:02.209
233.0, 15559.742219417361, 19042.1440055542, 0.0, 0.0, 0.0, -187500.02235174447, -187500.02235174447, 0.0, 0.356, -0.976, -0.148, 192.0, 0.0, 0.0, 0.0, 0.0, 0.0, 0.0, 0.0, 0.0, 0.0, 1.677704282209625E9, 0.0, 2023-03-01 12:58:02.209
234.0, 15564.704306686439, 19047.374313756744, 0.0, 0.0, 0.0, -187500.02235174447, -187500.02235174447, 0.0, 0.356, -0.976, -0.148, 192.0, 0.0, 0.0, 0.0, 0.0, 0.0, 0.0, 0.0, 0.0, 0.0, 1.677704282216125E9, 0.0, 2023-03-01 12:58:02.216
235.0, 15557.574100205196, 19035.304371750877, 0.0, 0.0, 0.0, -187500.02235174447, -187500.02235174447, 0.0, 0.356, -0.976, -0.148, 192.0, 0.0, 0.0, 0.0, 0.0, 0.0, 0.0, 0.0, 0.0, 0.0, 1.677704282216138E9, 0.0, 2023-03-01 12:58:02.216
236.0, 15555.584794948674, 19037.092511307303, 0.0, 0.0, 0.0, -187500.02235174447, -187500.02235174447, 0.0, 0.356, -0.976, -0.148, 192.0, 0.0, 0.0, 0.0, 0.0, 0.0, 0.0, 0.0, 0.0, 0.0, 1.677704282224196E9, 0.0, 2023-03-01 12:58:02.224
237.0, 15559.742219417361, 19038.455967719077, 0.0, 0.0, 0.0, -187500.02235174447, -187500.02235174447, 0.0, 0.356, -0.976, -0.148, 192.0, 0.0, 0.0, 0.0, 0.0, 0.0, 0.0, 0.0, 0.0, 0.0, 1.677704282224207E9, 0.0, 2023-03-01 12:58:02.224
238.0, 15557.775265905293, 19037.38308398522, 0.0, 0.0, 0.0, -187500.02235174447, -187500.02235174447, 0.0, 0.36, -0.976, -0.14, 192.0, 11.0, 64.0, 225.0, 128.0, 251.0, 160.0, 0.0, 0.0, 0.0, 1.677704282232236E9, 0.0, 2023-03-01 12:58:02.232
239.0, 15564.480789241887, 19039.1935752861, 0.0, 0.0, 0.0, -187500.02235174447, -187500.02235174447, 0.0, 0.36, -0.976, -0.14, 192.0, 0.0, 0.0, 0.0, 0.0, 0.0, 0.0, 0.0, 0.0, 0.0, 1.677704282232252E9, 0.0, 2023-03-01 12:58:02.232
240.0, 15566.291280542766, 19035.974924084538, 0.0, 0.0, 0.0, -187500.02235174447, -187500.02235174447, 0.0, 0.36, -0.976, -0.14, 192.0, 0.0, 0.0, 0.0, 0.0, 0.0, 0.0, 0.0, 0.0, 0.0, 1.677704282239422E9, 0.0, 2023-03-01 12:58:02.239
241.0, 15562.312670029722, 19035.52788919543, 0.0, 0.0, 0.0, -187500.02235174447, -187500.02235174447, 0.0, 0.36, -0.976, -0.14, 192.0, 0.0, 0.0, 0.0, 0.0, 0.0, 0.0, 0.0, 0.0, 0.0, 1.677704282245803E9, 0.0, 2023-03-01 12:58:02.245
242.0, 15565.88894914257, 19048.11192132377, 0.0, 0.0, 0.0, -187500.02235174447, -187500.02235174447, 0.0, 0.36, -0.976, -0.14, 192.0, 0.0, 0.0, 0.0, 0.0, 0.0, 0.0, 0.0, 0.0, 0.0, 1.677704282245818E9, 0.0, 2023-03-01 12:58:02.245
243.0, 15557.976431605392, 19040.0429415754, 0.0, 0.0, 0.0, -187500.02235174447, -187500.02235174447, 0.0, 0.36, -0.976, -0.14, 192.0, 0.0, 0.0, 0.0, 0.0, 0.0, 0.0, 0.0, 0.0, 0.0, 1.677704282253877E9, 0.0, 2023-03-01 12:58:02.253
244.0, 15553.304917014233, 19034.09737755029, 0.0, 0.0, 0.0, -187500.02235174447, -187500.02235174447, 0.0, 0.36, -0.976, -0.14, 192.0, 0.0, 0.0, 0.0, 0.0, 0.0, 0.0, 0.0, 0.0, 0.0, 1.677704282253914E9, 0.0, 2023-03-01 12:58:02.253
245.0, 15554.89189087056, 19035.214964773055, 0.0, 0.0, 0.0, -187500.02235174447, -187500.02235174447, 0.0, 0.36, -0.976, -0.14, 192.0, 0.0, 0.0, 0.0, 0.0, 0.0, 0.0, 0.0, 0.0, 0.0, 1.67770428226185E9, 0.0, 2023-03-01 12:58:02.261
246.0, 15558.512873472318, 19036.846642118293, 0.0, 0.0, 0.0, -187500.02235174447, -187500.02235174447, 0.0, 0.36, -0.976, -0.14, 192.0, 0.0, 0.0, 0.0, 0.0, 0.0, 0.0, 0.0, 0.0, 0.0, 1.677704282261863E9, 0.0, 2023-03-01 12:58:02.261
